# ================= DQRFIT RESULTS ================
# INPUT FILE: series/CATH.rad
# OUTPUT: CLEANED_DATA
# FILTER FUNCTION: f(t)
# f(t)=+line(t)+annual(t)+jumps(t)
# line(t)=+P 1+P 2*t
# annual(t)=+P 3*sin(2*pi*t+P 4)
# jumps(t)=+P 5*heav(t-2011.4160  )
# heav(t)=(t<0?0:1)
# TOTAL OBSERVATIONS MTOT= 3534
# INITIAL TIME INTERVAL= 2017.4593 - 2007.3374 = 10.1218
# TOTAL OBSERVATIONS AFTER PREFILTER M= 3525
# TIME-SPAN= 2017.4593 - 2007.3374 = 10.1218
# OBSERVATIONS: USED M=  3525 REJECTED MTOT-M=     9 %USED=   99.7453
# N=  5 PARAMETERS
# MAXSIG= 175.00000
# MAXRES=  30.44046
# SCALE FACTOR FOR LENGTHS: SCL=  10.00000
# SCALE FACTOR FOR SIGMAS: SCLSIG=   1.00000
# CHI^2=   8469.458 DOF=  3520 CHI^2/DOF=   2.40610
# RMS=      6.472 SDEV=      6.473 MEAN=    0.00911
#  P #       PARAMETER +-    SIGMA %error PARAMETER NAME
# P 1 =      1448.07662 +-  159.626  11.02 YZERO                              
# P 2 =        -0.72196 +-    0.079  11.01 SLOPE                              
# P 3 =         5.64777 +-    0.156   2.75 ANNUAL AMPLITUDE                   
# P 4 =        -2.74435 +-    0.036   1.31 ANNUAL PHASE                       
# P 5 =        13.71261 +-    0.515   3.75 OFFSET 2011.4160                   
#       T             B_CLEANED       RE-SCALED_SIG_OBS
     2007.33744        -7.33666         4.82205
     2007.34018        -2.02946         4.86115
     2007.34292       -10.42626         4.88625
     2007.34565         6.98766         4.86063
     2007.34839         3.45552         4.86572
     2007.35113         2.97874         4.87892
     2007.35387         0.25468         5.19937
     2007.35661        -3.35747         5.16366
     2007.35934        -1.05166         4.93902
     2007.36208         2.42839         4.84520
     2007.36482        -7.73313         4.93044
     2007.36756         4.11979         5.01333
     2007.37029         3.02039         4.91112
     2007.37303         1.23933         5.02200
     2007.37577        -9.53304         4.99952
     2007.37851         6.62045         4.83430
     2007.38125        -2.94055         4.88481
     2007.38398         3.57258         5.11691
     2007.38672        -1.61747         4.88814
     2007.38946        -2.40055         4.99761
     2007.39220         2.69631         4.94672
     2007.39493        -0.21167         4.83530
     2007.39767         5.52419         4.91701
     2007.40041         9.24589         4.96584
     2007.40315         2.84873         4.90364
     2007.40589        -4.21227         4.99895
     2007.40862        -4.66226         4.91500
     2007.41136        -5.73246         4.82729
     2007.41410        -4.52573         4.86834
     2007.41684         2.11778         4.83878
     2007.41958         7.94968         4.85526
     2007.42231         2.61192         4.81621
     2007.42505         5.09658         4.89305
     2007.42779        -1.74950         4.86267
     2007.43053        11.30963         4.86444
     2007.43326         1.04499         4.84184
     2007.43600         4.25965         4.83312
     2007.43874         4.14582         4.80518
     2007.44148         1.10932         4.88843
     2007.44422       -12.26876         5.09575
     2007.44695         0.68400         4.96115
     2007.45243         3.08194         6.88650
     2007.45517         4.64742         4.81282
     2007.45791        -8.21758         4.81324
     2007.46064         3.14699         4.83589
     2007.46886         7.35909         7.78183
     2007.47159        -1.17170         4.83547
     2007.47433        -0.27496         4.84875
     2007.47707         0.62434         5.05887
     2007.47981         1.25764         4.86310
     2007.48255        -0.64257         4.84512
     2007.48528        -0.86248         4.84722
     2007.48802         6.39324         4.84452
     2007.49076        -4.10103         5.08198
     2007.49350         2.00554        10.23020
     2007.49624         2.06522        12.08683
     2007.49897        -2.78256         7.22752
     2007.50171         2.39651         6.29963
     2007.50445         8.55666         6.84288
     2007.50719        -1.55300         4.85266
     2007.50992         0.08506         4.82632
     2007.51266         3.62088         4.82887
     2007.51814         5.24642         4.85311
     2007.52088        15.20731         4.86464
     2007.52361         1.37694         4.88573
     2007.52635         2.87708         4.87133
     2007.52909        15.45747         5.47260
     2007.53183        12.02926         5.19337
     2007.53457        -0.44278         4.84272
     2007.53730        11.34568         4.86521
     2007.54004         7.72545         4.89695
     2007.54278         8.81480         4.81458
     2007.54552         1.12313         4.84582
     2007.54825        13.21020         4.83529
     2007.55099        21.80543         4.83416
     2007.55373         8.24119         4.87568
     2007.55647        -1.94122         4.97378
     2007.55921         5.72586         4.83499
     2007.56194         1.73886         5.62594
     2007.56468         8.35183         4.83858
     2007.56742         9.61464         4.99298
     2007.57016        11.77075         4.83424
     2007.57290        15.22885         4.84509
     2007.57563         0.74199         4.99147
     2007.57837        -1.12685         4.98633
     2007.58111         9.71694         4.87392
     2007.58385         4.22024         4.83223
     2007.58658         6.01636         4.83167
     2007.58932         4.02769         4.82193
     2007.59206        19.17246         4.87153
     2007.59480        13.90581         4.95758
     2007.59754        13.97841         4.92986
     2007.60027         3.46725         4.82523
     2007.60301         6.62496         4.82586
     2007.60575         9.52794         4.83016
     2007.60849         5.79551         4.81891
     2007.61123        15.69390         4.83318
     2007.61396         4.58134         4.84766
     2007.61670        -0.08250         5.22341
     2007.61944        10.55849         5.18981
     2007.62218        17.06196         8.51764
     2007.62491        14.62084         4.99933
     2007.62765        -0.54325         5.25786
     2007.63039        16.34708         5.18581
     2007.63313        13.75884         4.98072
     2007.63587        11.31953         4.96994
     2007.63860         5.63632         4.98585
     2007.64134         8.82705         4.89830
     2007.64408         3.80805         5.18747
     2007.64682         4.87438         5.10726
     2007.64956        13.24250         5.13633
     2007.65229         2.58348         5.12902
     2007.65503         3.78174         5.05512
     2007.65777         3.08835         5.05757
     2007.66051         6.52527         5.15357
     2007.66324         4.68498         5.08289
     2007.66598         7.08107         5.00589
     2007.66872         1.69421         5.00195
     2007.67146        16.22462         5.05570
     2007.67420        19.30396         5.13881
     2007.67693        14.88816         5.27743
     2007.67967        11.65234         5.06426
     2007.68515         0.92626         5.16139
     2007.68789        12.77473         5.17024
     2007.69062         9.55823         5.12198
     2007.69336         7.03387         5.11853
     2007.69610         7.61458         5.02557
     2007.69884         9.92661         5.00410
     2007.70157        11.26699         5.07956
     2007.70431         5.01564         5.31493
     2007.70705        11.99082         5.13388
     2007.70979        11.58494         5.17060
     2007.71253         4.55157         5.02468
     2007.71526         6.71030         4.86782
     2007.71800         2.13693         4.91099
     2007.72074        13.33973         5.00150
     2007.72348        21.39320         5.03891
     2007.72621         5.45431         4.88028
     2007.72895         3.92214         5.28200
     2007.73169        12.29016         4.90886
     2007.73443         8.46332         5.06135
     2007.73717        -0.92716         5.00856
     2007.73990        17.09380         5.13981
     2007.74264         9.76782         5.06563
     2007.74538        19.89309         4.87393
     2007.74812        12.41348         5.05606
     2007.75086        13.16589         5.22076
     2007.75359        11.05876         5.22266
     2007.75633        11.90610         5.14806
     2007.75907         2.48885         5.16436
     2007.76181         0.91681         4.90910
     2007.76454        10.11540         4.92893
     2007.76728         9.40052         5.15759
     2007.77002        10.84854         5.68694
     2007.77276         5.82995         5.31945
     2007.77550         6.13044         4.99475
     2007.77823        11.66796         5.01472
     2007.78097         8.26982         5.00136
     2007.78371         0.50228         4.83905
     2007.78645         9.30869         4.98260
     2007.78919         9.22949         4.99300
     2007.79192        10.44285         5.13032
     2007.79466         9.49099         4.98386
     2007.79740        15.41273         4.89287
     2007.80014        20.67709         4.99272
     2007.80287         4.30272         5.53214
     2007.80561         2.11295         4.91590
     2007.80835        -2.36023         5.18294
     2007.81109         5.57779         5.16491
     2007.81383         0.78176         4.93748
     2007.81656         2.14843         5.07135
     2007.81930         3.84623         4.99658
     2007.82204        -3.32057         5.02111
     2007.82478        -3.32926         4.97835
     2007.82752         2.64805         5.02709
     2007.83025        -7.28736         5.16905
     2007.83299         6.44877         5.01715
     2007.83573         0.99293         4.92152
     2007.83847         2.02097         4.94292
     2007.84120         5.45201         4.81917
     2007.84394         1.94777         4.90607
     2007.84668        -5.48130         4.84332
     2007.84942        -1.49601         4.90146
     2007.85216       -12.22152         5.03076
     2007.85489         5.78629         4.97190
     2007.85763        10.16841         4.91016
     2007.86037         2.56009         4.85359
     2007.86311        13.67639         4.88486
     2007.86585        10.47704         4.93952
     2007.86858        -1.59381         4.98272
     2007.87132        11.28724         4.93337
     2007.87406        14.83291         4.84472
     2007.87680         7.14171         4.84352
     2007.87953         5.53812         4.84651
     2007.88227        -0.18567         4.88475
     2007.88501        -4.29420         4.91969
     2007.88775        -7.58405         4.84009
     2007.89049        -6.39088         4.88327
     2007.89322         2.39596         4.99370
     2007.89596       -11.59612         6.36338
     2007.89870        -1.89262         5.10041
     2007.90144        -1.96981         4.98320
     2007.90418        -2.58681         4.95767
     2007.90691        -1.29315         4.98446
     2007.90965        -7.42909         4.92120
     2007.91239        -3.36280         4.99947
     2007.91513        -7.70007         4.88263
     2007.91786         2.86600         4.87944
     2007.92060        -4.67287         8.13840
     2007.92882        -3.77260         5.40038
     2007.93155        -3.47822         5.08295
     2007.93429        -5.81908         5.39373
     2007.93703        -1.85272         5.23422
     2007.93977        -1.70114         4.97108
     2007.94251         1.64483         4.90289
     2007.94524       -14.98593         4.94191
     2007.94798        -7.78181         5.10241
     2007.95072        -5.99888         4.98977
     2007.95346         0.28415         5.00877
     2007.95619         0.77130         5.23120
     2007.95893        -0.11603         5.04401
     2007.96167        -5.80479         4.99159
     2007.96441        -2.73458         5.23770
     2007.96715        -7.89971         4.98192
     2007.96988       -15.77998         5.07279
     2007.97262        -2.71652         4.97151
     2007.97536         1.72977         4.94027
     2007.97810         3.31169         4.99061
     2007.98084        -4.71587         4.98707
     2007.98357        -4.04079         4.94003
     2007.98631        -3.87098         5.18899
     2007.98905         0.00554         5.13934
     2007.99179        -1.27694         5.10467
     2007.99452        -4.70012         5.13168
     2007.99726        -6.47514         4.95467
     2008.00000         1.55867         6.17447
     2008.00274        -2.16113         4.93897
     2008.00548         3.84633         4.87375
     2008.00821         0.66005         4.86680
     2008.01095         6.83635         4.91973
     2008.01369        -0.22257         4.86556
     2008.01643        -2.22442         4.84742
     2008.01916        -4.72524         4.94191
     2008.02190        -9.97258         4.99252
     2008.02464        -2.99343         4.88244
     2008.02738         3.81071         4.84917
     2008.03012       -13.80886         4.92666
     2008.03285       -12.36788         4.87049
     2008.03559       -10.84857         4.84443
     2008.03833        -8.10307         4.93095
     2008.04107        -7.10489         4.99953
     2008.04381        -5.46153         4.93810
     2008.04654       -10.82672         4.98046
     2008.04928        -7.71783         4.85749
     2008.05202        -5.64624         4.86285
     2008.05476        -1.62362         4.94644
     2008.05749         0.19358         4.90395
     2008.06023         1.36872         4.83091
     2008.06297         0.75837         4.89757
     2008.06845        -1.16682         7.95826
     2008.08214       -10.23786         5.34077
     2008.08487       -11.80109         4.86967
     2008.08761        -7.41885         4.86335
     2008.09035        -6.68442         4.86143
     2008.09309       -11.35742         4.89430
     2008.09582       -11.94139         5.06064
     2008.09856       -11.74192         5.03882
     2008.10130        -8.01876         5.03209
     2008.10404       -18.20066         4.90440
     2008.10678        -9.24570         4.86100
     2008.10951        -3.03880         4.84645
     2008.11225       -12.46320         4.88095
     2008.11499        -6.33718         4.85060
     2008.11773        -3.50606         6.78849
     2008.12047       -18.44850         4.84017
     2008.12320        -6.79617         4.98157
     2008.12594       -12.84499         5.91610
     2008.12868        15.39772        11.22401
     2008.13142         2.02821         4.89824
     2008.13415        -4.00327         4.86324
     2008.13689        -5.75591         4.83089
     2008.13963        -4.84319         4.99720
     2008.14237        -2.16258         4.82690
     2008.14511         2.38480         4.90763
     2008.14784        -9.24324         4.89463
     2008.15058       -10.59110         4.84105
     2008.15332       -17.59394         4.85272
     2008.15606         7.57456        13.97622
     2008.15880        -5.35244         4.85933
     2008.16153        -9.76602         4.85112
     2008.16427         0.06356         4.82926
     2008.16701       -15.51284         4.78302
     2008.16975        -5.85016         4.76377
     2008.17248        -2.94924         4.80670
     2008.17522        -3.52067         4.96820
     2008.17796       -14.58437         4.84397
     2008.18070        -7.14289         4.79992
     2008.18344        -0.27135         4.78896
     2008.18617        -8.70405         4.88286
     2008.18891         6.11851         4.83230
     2008.19165        -6.65503         4.89779
     2008.19439        -7.16252         4.79121
     2008.19713        -4.59314         5.87310
     2008.19986        -4.30031         4.81532
     2008.20260        -1.95916         4.81293
     2008.20534        -4.35943         4.82824
     2008.20808       -10.82701         4.96803
     2008.21081         5.72874         5.02793
     2008.21355        -5.10775         5.12226
     2008.21629         1.00351         4.91910
     2008.21903        -4.26734         4.92266
     2008.22177        -9.13015         4.87178
     2008.22450        -4.37884         4.89399
     2008.22724        -5.23616         4.92486
     2008.22998        -4.75132         4.98635
     2008.23272        -7.30396         4.95983
     2008.23546       -25.97277         8.56215
     2008.23819        -3.51208         4.82455
     2008.24093        -9.38132         5.04577
     2008.24367        -6.60652         4.86537
     2008.24641        -7.93468         4.82204
     2008.24914        -5.57264         4.87017
     2008.25188         0.35666         4.86781
     2008.25462        -4.14977         4.82829
     2008.25736        -1.26424         4.85440
     2008.26010        -3.51977         4.83953
     2008.26283        -5.35509         4.81421
     2008.26557         1.10036         4.81503
     2008.26831        -6.97721         4.78376
     2008.27105        -0.76882         4.94579
     2008.27379        -4.07167         4.83881
     2008.27652        -9.61140         4.93403
     2008.27926         3.52391         4.95332
     2008.28200        -0.97238         4.86131
     2008.28474         5.45582         4.84774
     2008.28747         0.71413         4.91074
     2008.29021        -3.11344         4.95038
     2008.29295        -1.23352         4.97894
     2008.29569        -5.02668         4.83182
     2008.29843        -7.15302         4.84071
     2008.30116        -8.56992         4.99221
     2008.30390        -5.38560         4.85114
     2008.30664       -10.56964         5.04187
     2008.30938        -5.25563         4.97637
     2008.31211        -6.25405         5.17184
     2008.31485        -0.91744         4.87489
     2008.31759       -10.69208         5.02047
     2008.32033        -4.01815         4.92534
     2008.32307        -0.32046         4.89235
     2008.32580         0.10525         4.98413
     2008.32854        -6.80176         4.84607
     2008.33128        -6.60568         5.02954
     2008.33402        -5.28481         4.87395
     2008.33676         1.23788         4.83138
     2008.33949        -2.70992         5.04944
     2008.34223        -5.81733         4.83406
     2008.34497        -3.55833         4.87892
     2008.34771        -2.84138         4.84278
     2008.35044         3.22772         4.90125
     2008.35318         1.02484         4.76835
     2008.35592        -0.76065         4.77061
     2008.35866        -0.26891         4.85157
     2008.36140         3.88767         5.15520
     2008.36413        -0.00488         4.88138
     2008.36687         5.12166         4.88309
     2008.36961        -3.04810         4.76408
     2008.37235        -8.76701         4.78740
     2008.37509         5.01292         6.62650
     2008.37782        -2.67653         4.77753
     2008.38056        -3.88989         4.83365
     2008.38330        -0.24290         4.80022
     2008.38604         1.93763         4.78968
     2008.38877        -2.92408         4.81738
     2008.39151         0.95323         4.91357
     2008.39425        -3.10634         4.79620
     2008.39699         3.83190         4.82113
     2008.39973         2.10603         4.81895
     2008.40246         0.48212         5.22916
     2008.40520        -1.02801         4.91889
     2008.40794        -2.05853         4.81982
     2008.41068        -3.32800         4.80926
     2008.41342       -14.84359         4.78217
     2008.41615         3.66175         4.77723
     2008.41889        -0.88554         4.75603
     2008.42163         2.39795         4.88172
     2008.42437        -0.09619         5.72576
     2008.42710        -2.92502         4.79305
     2008.42984         3.65010         4.85550
     2008.43258         1.42608         4.97488
     2008.43532        -4.44991         4.92289
     2008.43806        -8.59454         4.91227
     2008.44079        -4.23452         4.79338
     2008.44353       -14.26797         4.79711
     2008.44627        -5.03933         4.87517
     2008.44901        -6.47557         4.80094
     2008.45175        -4.32348         4.97657
     2008.45448        -8.47079         4.93499
     2008.45722       -11.81546         4.82234
     2008.45996        -2.31920         4.84665
     2008.46270        -4.19919         4.83805
     2008.46543        -5.82499         4.92671
     2008.46817        -7.80916         4.80129
     2008.47091       -16.59670         4.79559
     2008.47365         1.41317         4.79785
     2008.47639        -6.47435         4.88147
     2008.47912        -9.69725         4.79388
     2008.48186        -1.66705         4.79933
     2008.48460        -1.57507         4.95458
     2008.48734        -5.39391         4.80165
     2008.49008        -3.21557         4.81819
     2008.49281       -11.25589         4.82447
     2008.49555        -9.27041         4.92498
     2008.49829         0.02786         4.97834
     2008.50103        -3.57420         4.95875
     2008.50376         3.21149         4.88826
     2008.50650        -4.22083         4.81327
     2008.50924        -5.28982         4.82798
     2008.51198         0.75602         4.83818
     2008.51472        -5.70999         4.82463
     2008.51745         2.15461         4.79711
     2008.52019         4.23078         4.84984
     2008.52293         6.46377         4.92006
     2008.52567        -7.50218         4.94033
     2008.52841        -0.90622         4.84213
     2008.53114         4.25208         4.99572
     2008.53388         8.62266         4.83457
     2008.53662         5.08234         4.85492
     2008.53936        -0.83914         5.14508
     2008.54209        -0.35094         5.10560
     2008.54483         1.56677         4.86725
     2008.54757         4.43992         4.93791
     2008.55031         7.74853         4.80511
     2008.55305        10.12441         4.79164
     2008.55578         6.83201         4.78675
     2008.55852         3.89116         4.89420
     2008.56126        -3.54553         4.85102
     2008.56400         6.84350         4.82221
     2008.56674        -1.15676         4.76620
     2008.56947         1.65479         4.80156
     2008.57221         2.75480         4.89623
     2008.57495        -2.84452         4.92987
     2008.57769        -1.40149         4.94489
     2008.58042         4.16624         4.87627
     2008.58316        11.79529         4.79851
     2008.58590         1.27679         4.79127
     2008.58864        -0.91334         4.90828
     2008.59138         0.99863         5.69401
     2008.59411        -2.87723         4.81204
     2008.59685        -1.52252         4.85096
     2008.59959         7.80536         4.97623
     2008.60233         7.37933         5.04142
     2008.60507        -7.21222         4.90170
     2008.60780         0.15308         4.88244
     2008.61054         2.07580         4.89879
     2008.61328        -1.33769         4.90073
     2008.61602         7.88246         4.86172
     2008.61875        -0.87573         4.87817
     2008.62149         7.11755         4.95718
     2008.62423         7.12131         4.89998
     2008.62697         4.93527         4.94610
     2008.62971        10.32208         4.96356
     2008.63244         9.01990         4.86598
     2008.63518         5.54656         4.88290
     2008.63792         4.49695         4.86438
     2008.64066         0.46955         4.86114
     2008.64339         0.55399         4.88463
     2008.64613       -11.57999         5.92346
     2008.64887         3.79149         4.86530
     2008.65161         8.48270         4.86425
     2008.65435        12.07147         4.95224
     2008.65708        10.79664         5.06747
     2008.65982         5.65778         4.88571
     2008.66256        11.65811         4.95289
     2008.66530         5.82814         4.92454
     2008.66804        -2.57443         4.94976
     2008.67077        -7.53609         4.92112
     2008.67351        -1.47880         4.94841
     2008.67625        -3.45766         4.92668
     2008.67899       -11.98636         5.07713
     2008.68172         7.99697         4.94187
     2008.68446         1.37824         4.94219
     2008.68720        -7.98991         4.95954
     2008.68994         9.43634         4.93672
     2008.69268        -1.38007         5.01017
     2008.69541         1.12155         4.98763
     2008.69815        13.60570         4.98907
     2008.70089        11.41726         4.94415
     2008.70363        -0.85414         4.94047
     2008.70637         1.27061         5.01405
     2008.70910         0.85451         4.97764
     2008.71184        10.56545         5.07658
     2008.71458         7.11890         4.86969
     2008.71732         0.79924         4.85749
     2008.72005         6.94904         4.87413
     2008.72279         2.01664         4.85806
     2008.72553        -6.73981         4.85848
     2008.72827         0.04615         4.86083
     2008.73101         7.44530         4.86338
     2008.73374        -0.86132         4.83941
     2008.73648        -1.37223         4.87755
     2008.73922        -3.11761         4.87125
     2008.74196        -6.38614         4.87881
     2008.74470        10.14653         4.91680
     2008.74743        11.57431         4.82022
     2008.75017         7.78153         4.94596
     2008.75291         8.58258         4.84619
     2008.75565         6.46131         4.90313
     2008.75838         7.17760         4.88210
     2008.76112         4.54844         4.81956
     2008.76386        -2.95588         4.84590
     2008.76660         2.15585         4.86966
     2008.76934        -2.39837         4.92584
     2008.77207        -0.31229         4.82204
     2008.77481       -13.30216         4.83503
     2008.77755       -12.33234         4.79729
     2008.78029       -11.42094         4.82824
     2008.78303        -5.29751         4.82829
     2008.78576       -10.73433         4.86062
     2008.78850        -4.09181         4.97607
     2008.79124         3.29251         4.95544
     2008.79398        -6.54248         4.96334
     2008.79671        -2.34751         4.90076
     2008.79945        -1.61305         4.94542
     2008.80219        -2.28654         4.87300
     2008.80493        -7.28947         5.04556
     2008.80767        -3.24562         4.84279
     2008.81040        -1.16854         4.84967
     2008.81314        -7.09316         4.98664
     2008.81588        -0.12145         4.83335
     2008.81862        -4.83066         4.84426
     2008.82136         0.91935         4.84340
     2008.82409         0.59141         4.86666
     2008.82683        -3.64858         4.97626
     2008.82957        -1.30965         4.87296
     2008.83231        12.04917         4.99035
     2008.83504         3.87915         4.84735
     2008.83778         1.04532         5.03153
     2008.84052         2.70761         4.97564
     2008.84326        -1.18086         4.84413
     2008.84600         3.51391         4.91531
     2008.84873        -2.76264         4.98002
     2008.85147        -2.71749         4.91433
     2008.85421         7.23530         4.81622
     2008.85695         7.93766         4.80619
     2008.85969        -5.24537         5.10386
     2008.86242        -1.32413         4.86472
     2008.86516        -2.73992         4.88325
     2008.86790        -2.04173         4.95749
     2008.87064        -9.63460         4.99296
     2008.87337       -12.06073         4.80147
     2008.87611        -6.21152         4.92324
     2008.87885        -6.43579         5.55589
     2008.88159        -5.70258         4.82666
     2008.88433        -6.99676         4.94189
     2008.88706        -2.49665         5.21480
     2008.88980        -0.71092         5.45435
     2008.89254        -3.20140         5.06274
     2008.89528       -12.48004         5.05268
     2008.89802        -0.73275         5.03023
     2008.90075       -12.08641         4.82045
     2008.90349       -13.90375         5.31728
     2008.90623         2.80266        10.09791
     2008.90897         2.07270         4.93877
     2008.91170         2.59857         4.93279
     2008.91444         5.71933         4.84827
     2008.91718        -0.28244         4.80747
     2008.91992         1.34237         4.91645
     2008.92266        -5.21996         4.82121
     2008.92539        -4.63303         4.84375
     2008.92813       -12.55984         4.92654
     2008.93087       -10.64284         5.15735
     2008.93361        -7.01772         5.07632
     2008.93634        -4.36547         4.90841
     2008.93908         1.46391         4.86696
     2008.94182        -6.48551         4.89728
     2008.94456        -1.13967         4.90205
     2008.94730       -10.23511         4.94028
     2008.95003        -0.75658         4.97332
     2008.95277        -1.44732         4.79611
     2008.95825        -4.22995         4.81633
     2008.96099       -12.76785         4.94414
     2008.96646       -15.20420         4.96294
     2008.96920       -21.69424         4.82478
     2008.97194        -9.57738         4.79863
     2008.97741       -22.97651         4.92402
     2008.98015       -19.14332         5.05015
     2008.98289        -5.21907         4.86606
     2008.98563       -12.71201         5.58880
     2008.98836       -10.84824         8.75654
     2008.99110        -6.86317         4.84461
     2008.99384        -9.36977         4.87078
     2008.99658       -13.03483         4.85028
     2008.99932        -1.46930         4.81856
     2009.00205        -8.69171         5.76694
     2009.00479        -8.10173         4.82027
     2009.00753       -22.57418         4.84537
     2009.01027        -9.29996         4.87586
     2009.01300        -2.42709         4.79794
     2009.01574        -8.87267         4.89604
     2009.01848        -4.69832         4.86620
     2009.02122        -6.48128         4.98629
     2009.02396       -18.43261         4.95619
     2009.02669       -21.27246         4.85223
     2009.02943       -17.16166         4.82887
     2009.03217       -24.49908         4.84354
     2009.03765       -24.59242         4.82250
     2009.04038       -16.01538         4.86032
     2009.04312       -20.58062         4.84194
     2009.04586       -14.96589         4.88770
     2009.04860       -13.78674         4.86047
     2009.05133        -8.15139         4.94396
     2009.05407       -11.50689         4.87453
     2009.05681        -7.62074         4.86759
     2009.05955       -15.07654         5.46731
     2009.06502       -14.85153         4.88196
     2009.06776       -24.43326         4.82806
     2009.07050       -14.52915         4.85357
     2009.07324       -12.45528         4.84778
     2009.07598       -15.66887         5.02075
     2009.07871       -20.86229         4.98203
     2009.08145       -21.96768         4.84016
     2009.08419       -13.66847         5.02160
     2009.08693       -11.24252         5.01003
     2009.08966       -18.84242         4.87121
     2009.09240       -13.10237         4.94141
     2009.09514       -22.10978         4.85755
     2009.09788       -16.64580         4.85987
     2009.10062       -10.84565         4.93058
     2009.10335       -10.58836         4.92622
     2009.10609       -13.44303         4.85056
     2009.10883       -12.23917         5.57993
     2009.11431        -8.53068         5.09943
     2009.11704        -6.28432         5.16927
     2009.11978        -6.51724         4.88872
     2009.12252        -8.64901         4.91567
     2009.12526       -15.20534         4.93337
     2009.12799       -11.79326         4.87216
     2009.13073        -4.40141         5.01403
     2009.13347       -18.20689         4.98358
     2009.13621       -18.49809         4.83692
     2009.13895       -11.17017         4.84859
     2009.14168       -27.16181         4.90210
     2009.14442       -15.53134         4.94391
     2009.14716        -9.81090         4.90024
     2009.14990       -11.96348         4.92789
     2009.15264        -8.50034         4.90952
     2009.15537       -27.58030         4.92597
     2009.15811       -18.45966         4.93402
     2009.16085       -12.34099         5.03725
     2009.16359        -5.17829         5.63668
     2009.16632        -9.60198         5.01279
     2009.16906       -11.51391         4.95761
     2009.17180       -14.48009         4.87478
     2009.17454        -9.61171         4.83988
     2009.17728       -10.12953         5.04767
     2009.18001       -12.25336         4.83869
     2009.18275       -20.03237         4.94154
     2009.18549       -27.26130         4.84899
     2009.18823       -19.32540         4.94292
     2009.19097       -13.57891         4.78945
     2009.19370       -12.79874         5.13299
     2009.19644       -14.93369         4.86342
     2009.19918        -8.41184         4.88513
     2009.20192       -15.54098         5.01306
     2009.20465       -14.06215         4.81838
     2009.20739       -11.88926         4.79880
     2009.21013       -15.49943         4.80499
     2009.21287        -7.07779         4.82365
     2009.21561       -14.42402         4.87543
     2009.21834       -26.33413         4.84771
     2009.22108       -14.32674         4.87131
     2009.22382       -12.46060         4.82006
     2009.22656       -16.34462         4.82852
     2009.22930        -7.75746         4.81057
     2009.23203       -14.77245         4.88380
     2009.23477       -13.48662         4.99417
     2009.23751        -5.62767         4.88349
     2009.24025        -6.23484         4.85863
     2009.24298        -7.96145         4.91141
     2009.24572       -11.17198         4.92383
     2009.24846       -11.80327         4.90856
     2009.25120        -8.05062         5.05571
     2009.25394        -3.03074         5.03474
     2009.25667        -8.26294         4.83964
     2009.25941       -11.77089         4.88399
     2009.26215       -11.70132         4.93120
     2009.26489        -6.37759         4.90548
     2009.26762        -1.93976         4.90601
     2009.27036         3.17662         4.90051
     2009.27310        -3.52693         4.89667
     2009.27584       -13.37930         4.90424
     2009.27858        -9.24171         4.91169
     2009.28131        -9.38871         4.91417
     2009.28405        -8.34518         4.87171
     2009.28679       -11.64119         4.90164
     2009.28953       -22.80677         4.87714
     2009.29227       -11.92477         4.90309
     2009.29500       -17.19427         4.89549
     2009.29774        -7.20206         4.97184
     2009.30048       -11.45376         4.87944
     2009.30322        -5.91066         4.87422
     2009.30595         1.01164         5.07255
     2009.30869        -6.45017         4.87304
     2009.31143        -9.00857         4.97796
     2009.31417        -1.83572         4.89401
     2009.31691       -17.26995         4.97021
     2009.31964        -7.49956         4.94809
     2009.32238        -6.48392         4.90171
     2009.32512        -8.30671         5.15215
     2009.32786        -5.13041         5.02575
     2009.33060       -11.81956         4.99222
     2009.33333        -3.99459         4.87220
     2009.33607       -10.48066         4.95384
     2009.33881         1.40945         4.95107
     2009.34155        -5.95031         4.87766
     2009.34428        -9.11849         4.87987
     2009.34702        -2.77080         4.85693
     2009.34976       -13.59011         4.82620
     2009.35250       -18.37542         4.89125
     2009.35524       -12.08812         4.82063
     2009.35797        -9.99444         4.84926
     2009.36071        -7.28307         5.11582
     2009.36345       -15.78184         4.96877
     2009.36619        -8.31782         4.84288
     2009.36893       -23.14828         4.87445
     2009.37166       -20.40978         4.85490
     2009.37440        -9.80041         4.83850
     2009.37714        -6.75807         4.80956
     2009.37988        -8.90928         4.98439
     2009.38261       -15.18274         4.90706
     2009.38535       -17.13617         4.86507
     2009.38809       -14.47878         4.87524
     2009.39083       -12.33423         4.83637
     2009.39357        -8.65593         4.85813
     2009.39630       -13.44226         4.85103
     2009.39904        -8.71444         4.85257
     2009.40178       -14.06275         4.88934
     2009.40452        -8.13908         4.87155
     2009.40726        -3.49230         4.88364
     2009.40999       -19.73998         4.87777
     2009.41273       -12.75694         4.90374
     2009.41547        -9.89970         4.91873
     2009.41821        -9.19101         4.96745
     2009.42094       -12.12114         4.87356
     2009.42368       -11.27309         4.85855
     2009.42642        -1.75065         4.85420
     2009.42916        -6.93679         4.98084
     2009.43190       -13.02011         4.91489
     2009.43463       -11.95465         4.87438
     2009.43737       -14.30494         4.94757
     2009.44011        -8.16932         4.82920
     2009.44285        -6.28324         4.88415
     2009.44559        -7.60092         4.89666
     2009.44832       -11.76306         4.87811
     2009.45106        -5.53099         5.01300
     2009.45380        -9.44672         4.93087
     2009.45654       -11.02355         4.85606
     2009.45927       -16.46842         4.85342
     2009.46201        -6.45471         4.97771
     2009.46475        -9.82368         4.99008
     2009.46749        -9.61432         4.94199
     2009.47023        -3.59223         4.86081
     2009.47296        -2.62752         4.84742
     2009.47570        -9.66968         4.88524
     2009.47844        -3.48520         4.89605
     2009.48118        -5.03900         4.85486
     2009.48392       -11.67465         4.91871
     2009.48665       -11.01398         4.93508
     2009.48939        -3.70569         4.94270
     2009.49213        -2.47563         5.06573
     2009.49487        -6.23611         4.95060
     2009.49760        -4.82718         5.09735
     2009.50034        -6.36251         4.87122
     2009.50308        -5.80402         4.86110
     2009.50582        -7.81988         4.86064
     2009.50856        -2.76318         4.85006
     2009.51129         1.86613         4.87406
     2009.51403        -6.78628         4.87854
     2009.51677        -2.81158         4.84502
     2009.51951        -9.63181         4.86852
     2009.52225       -16.68517         4.83756
     2009.52498       -11.77827         4.87043
     2009.52772        -3.99512         4.89064
     2009.53046        -8.41633         4.90547
     2009.53320        -4.14870         4.81189
     2009.53593       -10.78630         4.82823
     2009.53867        -3.60122         4.83766
     2009.54141        -3.61776         4.88517
     2009.54415       -10.05948         4.88825
     2009.54689        -5.65259         4.85467
     2009.54962        -0.25062         4.84331
     2009.55236        -3.40781         4.85392
     2009.55510        -2.41762         4.83020
     2009.55784         0.26064         4.86741
     2009.56057        -6.66840         5.01984
     2009.56331        -6.90065         4.98271
     2009.56605         1.99744         5.06691
     2009.56879       -17.90734         4.86932
     2009.57153       -12.33749         5.01788
     2009.57426        -8.10820         4.89525
     2009.57700         7.24151         5.10545
     2009.57974        -5.45962         4.92100
     2009.58248        -2.92294         4.86170
     2009.58522        -2.20393         4.91422
     2009.58795        -5.53999         4.88625
     2009.59069         3.12552         4.90726
     2009.59343        -1.90869         4.95649
     2009.59617         3.98606         4.88038
     2009.59890        -4.00771         5.86982
     2009.60164        -3.65268         4.84270
     2009.60438         0.36008         4.88470
     2009.60712        -1.89585         4.91408
     2009.60986        -1.45301         4.89021
     2009.61259         7.92335         4.91989
     2009.61533         9.75486         4.85633
     2009.61807         5.99731         4.92062
     2009.62081         6.88151         4.97924
     2009.62355         8.31535         4.93097
     2009.62628        -0.47610         4.93057
     2009.62902        13.75398         4.90604
     2009.63176         6.50810         4.88959
     2009.63450         6.65004         4.89735
     2009.63723         6.77921         5.00982
     2009.63997         2.44904         5.03046
     2009.64271         6.56104         4.97726
     2009.64545         3.43686         4.94556
     2009.64819        11.63958         5.13394
     2009.65092         2.66805         4.97599
     2009.65366         0.01359         4.97128
     2009.65640         1.80632         4.84623
     2009.65914         2.59868         4.80602
     2009.66188         3.08026         4.79784
     2009.66461         7.67812         4.85857
     2009.66735         6.52165         4.94233
     2009.67009         5.33850         5.06097
     2009.67283         5.64551         4.91579
     2009.67556         9.92909         4.90783
     2009.67830        10.11063         5.09537
     2009.68104        13.43414         4.98035
     2009.68378        -5.67504         4.95214
     2009.68652         1.45703         4.86199
     2009.68925         6.47625         4.87637
     2009.69199         0.16536         4.86184
     2009.69473         1.46394         4.89566
     2009.69747        -0.49337         4.89156
     2009.70021         3.56809         4.99776
     2009.70294        14.49456         4.90305
     2009.70568         5.26621         4.91892
     2009.70842         3.04339         4.89086
     2009.71116        -3.22468         4.90568
     2009.71389        -1.50155         5.10074
     2009.71663        14.90417         4.93623
     2009.71937         2.86816         4.89916
     2009.72211        -0.16990         4.91115
     2009.72485         3.60341         4.92536
     2009.72758         2.32973         5.13303
     2009.73032         8.23134         4.94857
     2009.73306         4.33638         4.98605
     2009.73580         3.84373         4.93096
     2009.73854        12.39082         4.89651
     2009.74127        10.11682         5.02138
     2009.74401        -0.73497         5.10678
     2009.74675         3.60192         4.94342
     2009.74949         3.35089         4.93377
     2009.75222         4.95892         4.97526
     2009.75496        -1.28406         4.94253
     2009.75770        -2.80621         4.93762
     2009.76044        -3.19239         4.92879
     2009.76318         0.20911         4.93757
     2009.76591        11.43788         4.91205
     2009.76865         1.25959         4.98913
     2009.77139        10.41605         4.91883
     2009.77413        -4.51156         5.02208
     2009.77687         2.68533         4.94033
     2009.77960         4.62536         4.92468
     2009.78234        14.29897         4.89198
     2009.78508        17.19325         4.90846
     2009.78782         6.82963         5.07903
     2009.80424         6.58133         5.00795
     2009.80698         2.96383         5.11285
     2009.80972         5.93807         5.08697
     2009.81246         0.81919         5.04249
     2009.81520         8.71221         5.09410
     2009.81793        12.07410         5.12584
     2009.82067        -0.43055         4.99467
     2009.82341        -5.56810         5.00661
     2009.82615         5.04626         4.97305
     2009.82888         5.51979         5.00934
     2009.83162        17.80834         5.02605
     2009.83436         5.12651         4.89969
     2009.83710        -6.74362         5.05242
     2009.83984         1.73047         5.00274
     2009.84257         7.97869         4.96382
     2009.84531        12.72360         5.08693
     2009.84805         8.92883         5.06067
     2009.85079         7.85916         5.01354
     2009.85352        12.83995         5.00830
     2009.85626        -2.37922         4.96685
     2009.85900        -1.11779         5.06634
     2009.86174        11.58937         5.03366
     2009.86448        11.31642         5.29014
     2009.86721         7.88785         5.13660
     2009.86995         2.18582         5.05087
     2009.87269        15.58616         4.97675
     2009.87543        14.47813         5.03497
     2009.87817         7.72288         5.15646
     2009.88090        15.16885         5.11842
     2009.88364         7.87853         5.08612
     2009.88638        10.85014         4.97742
     2009.88912         1.47349         4.86916
     2009.89185         2.02939         5.36415
     2009.89459         6.23962         4.92554
     2009.89733        -7.91096         5.10575
     2009.90007       -10.11136         4.98557
     2009.90281         2.31973         4.96581
     2009.90554         7.51272         4.82065
     2009.90828        -1.77022         4.97648
     2009.91102       -10.20027         4.99643
     2009.91376         2.38903         4.83916
     2009.91650        -7.44561         4.88121
     2009.91923        -0.35792         4.85661
     2009.92197         1.34356         4.87633
     2009.92471        -5.63449         4.91200
     2009.92745        -2.22738         4.90378
     2009.93018        -3.53124         4.84569
     2009.93292         1.95408         4.86526
     2009.93566        -3.17667         4.86008
     2009.93840         5.94420         6.82202
     2009.94114        -1.75763         5.31781
     2009.94387         4.57808         4.99150
     2009.94661         1.85318         5.06648
     2009.94935        -1.25270         4.86347
     2009.95209        -1.60841         4.88907
     2009.95483         7.81521         4.87090
     2009.95756         5.02863         4.90451
     2009.96030         1.53909         4.97251
     2009.96304        -9.59726         4.89936
     2009.96578        -3.97468         4.91410
     2009.96851        -7.84086         4.98278
     2009.97125        -9.04034         5.03068
     2009.97399         1.56353         4.94675
     2009.97673       -13.26489         4.89608
     2009.97947        -9.12772         4.85922
     2009.98220        -3.86884         4.84148
     2009.98494        -7.39029         4.86670
     2009.98768        -3.31065         5.06811
     2009.99042        -5.57653         4.83562
     2009.99316         4.09201         4.83544
     2009.99589        -5.40364         4.84528
     2009.99863        -0.60679         4.86266
     2010.00137       -14.68822         5.86058
     2010.00411       -12.16132         4.85027
     2010.00684        -7.78396         4.82474
     2010.00958        -3.43968         4.86179
     2010.01232       -10.10268         4.87895
     2010.01506        -4.46473         4.89170
     2010.01780       -11.04233         4.88116
     2010.02053         0.49986         5.02800
     2010.02327        -3.46519         4.88180
     2010.02601        -7.56370         4.83317
     2010.02875         2.99648         4.90833
     2010.03149        -6.88836         4.89816
     2010.03422        -3.11829         4.94763
     2010.03696        -8.41456         5.26863
     2010.03970        -0.50470         5.06962
     2010.04244        -7.82389         4.85129
     2010.04517        -3.46439         4.89579
     2010.04791         6.91782         4.90142
     2010.05065         0.19131         4.98526
     2010.05339        -0.17065         5.13814
     2010.05613         0.80953         4.90397
     2010.05886        -7.06415         5.62863
     2010.06982        -8.00524        10.69350
     2010.07255       -10.23577         5.06095
     2010.07529        -4.27873         5.13052
     2010.07803        -7.95090         4.84787
     2010.08077        -7.22365         4.88809
     2010.08350        -7.67832         6.15001
     2010.08624       -12.56895         4.84114
     2010.08898        -1.92884         4.97164
     2010.09172        -2.13598         4.80836
     2010.09446        -5.95326         4.98526
     2010.09719        -5.00252         4.98695
     2010.09993        -8.05039         4.85929
     2010.10267        -8.39002         4.91515
     2010.10541       -15.01103         4.99375
     2010.10815       -10.54722         5.01015
     2010.11088       -13.51656         4.97151
     2010.11362         3.78048         4.86809
     2010.11636        -5.54253         4.93082
     2010.11910        -0.15718         4.85749
     2010.12183        -4.94161         4.84898
     2010.12457        -8.53095         4.89426
     2010.12731        -6.12891         5.04159
     2010.13005       -22.22433         6.76175
     2010.22587        -4.18368        15.61121
     2010.22861         0.28355         4.94181
     2010.23135        -6.88031         4.92639
     2010.23409       -12.80208         4.91873
     2010.23682         3.18647         4.90659
     2010.23956         3.85956         5.01428
     2010.24230         5.31008         5.10291
     2010.24504        -0.90923         5.65011
     2010.26146       -11.97036         8.90376
     2010.26420         7.62945         5.11148
     2010.26694        -0.74194         4.93269
     2010.26968         2.62040         5.05141
     2010.27242        -6.79477         5.01540
     2010.27515        -1.21591         4.92828
     2010.27789         2.05304         5.02756
     2010.28063         2.16924         5.05401
     2010.28337        -3.44649         5.16824
     2010.28611        -1.54574         5.05015
     2010.28884         2.00955         4.88686
     2010.29158        -2.95546         4.95421
     2010.29432         4.93653         4.96510
     2010.29706        -5.18930         4.86157
     2010.29979         3.32679         4.98681
     2010.30253         7.35447         4.96390
     2010.30527        12.68412         5.02031
     2010.30801         8.14366         4.88612
     2010.31075         6.49999         4.89175
     2010.31348        -6.68048         4.85598
     2010.31622         7.90105         4.88020
     2010.31896        10.90528         4.99823
     2010.32170         5.55179         4.91103
     2010.32444         9.45536         4.96761
     2010.32717         0.02944         4.86412
     2010.32991         0.20462         8.37224
     2010.33265         3.65596         8.53421
     2010.33539         1.87375         8.84947
     2010.33812         2.19958         8.44776
     2010.34086        -6.46931         8.41400
     2010.34360        -3.76018         8.34711
     2010.34634        -8.13213         8.71083
     2010.34908        -8.15272         8.42983
     2010.35181        -8.92318         8.39584
     2010.35455         2.73314         8.57114
     2010.35729        -4.93818         8.43740
     2010.36003        -0.84934         8.47728
     2010.36277        -5.86071         8.43233
     2010.36550        -7.89679         8.87314
     2010.36824        -5.29333         8.69777
     2010.37098         2.92063         8.40187
     2010.37372        -5.72868         8.40517
     2010.37645         1.93164         8.41615
     2010.37919         6.72545         8.79300
     2010.38193         3.13843         8.91859
     2010.38467        -1.73661         8.53442
     2010.38741        -0.68496         8.70698
     2010.39014        -5.31914        10.29605
     2010.39288        -5.51612         8.52213
     2010.39562        -8.20564         8.50578
     2010.39836        -6.22756         8.32843
     2010.40110       -10.33421         8.31563
     2010.40383        -4.88816         8.32873
     2010.40657       -12.77495         8.35979
     2010.40931        -7.19318         8.38591
     2010.41205        -5.49073         8.53178
     2010.41478        -0.74493         8.38838
     2010.41752         2.32734         8.34937
     2010.42026        -7.06745         8.51308
     2010.42300         4.88868         8.36590
     2010.42574       -12.47226         8.33094
     2010.42847       -10.91204         8.39512
     2010.43121        -5.00613         8.32423
     2010.43395       -10.10430         8.78650
     2010.43669         2.29027         8.34393
     2010.43943        -0.57044         8.31398
     2010.44216       -11.33714         8.31720
     2010.44490       -16.36555         8.29443
     2010.44764        -9.22702         8.61120
     2010.45038        -0.83534         8.48986
     2010.45311         0.74005         8.31299
     2010.45585        -7.32336         8.34902
     2010.45859        -4.02945         8.52152
     2010.46133       -12.48678         8.49990
     2010.46407         0.48273         8.34768
     2010.46680        -0.96633         9.31591
     2010.46954        -3.27021         8.44229
     2010.47228        -4.40902         8.30724
     2010.47502       -10.70511         8.34368
     2010.47775        -1.54500         8.57078
     2010.48049        -1.85407         8.55548
     2010.48323        -1.92300        17.31393
     2010.48871         0.14597        13.72137
     2010.49144       -12.61967         8.30389
     2010.49418       -15.64440         8.29609
     2010.49692        -6.25916         8.57660
     2010.49966        -5.14403         8.30790
     2010.50240        -4.48159         8.34339
     2010.50513        -5.01013         8.33485
     2010.50787         0.31062         8.56311
     2010.51061        -3.79669         8.32599
     2010.51335         1.49495         8.29891
     2010.51608         0.72821         8.36772
     2010.51882         0.04062         8.37194
     2010.52156         1.39804         8.74061
     2010.52430        -3.75367         8.36991
     2010.52704         2.54764         8.36955
     2010.52977         4.48545         8.38484
     2010.53251        -6.07130         8.36597
     2010.53525        -5.56880         8.46591
     2010.53799         0.36847         8.38135
     2010.54073         1.34376         8.39707
     2010.54346        -5.11585         8.34411
     2010.54620        -0.21182         8.39588
     2010.54894         3.13106         8.42426
     2010.55168         1.25004         8.51299
     2010.55441         0.34174         8.68100
     2010.55715        -2.70061         8.34376
     2010.55989        -1.89206         8.66732
     2010.56263        -3.23192         8.66284
     2010.56537         5.50604         8.37609
     2010.56810        -1.93640         8.64800
     2010.57084         2.26601         8.35680
     2010.57358        -0.86367         8.61793
     2010.57632        -1.21343         8.75602
     2010.57906         8.83511         8.33483
     2010.58179         3.20540         8.32201
     2010.58453        -2.23307         8.35443
     2010.58727        -2.64508         8.52632
     2010.59001         2.17953         8.61825
     2010.59274         5.65519         8.37724
     2010.59548        10.53998         8.30808
     2010.59822        -0.67463         8.50718
     2010.60096         4.35465         8.31761
     2010.60370        -2.00630         8.42933
     2010.60643         1.15237         8.60677
     2010.60917         2.49945         8.37677
     2010.61191         2.58866         8.31613
     2010.61465         5.02246         8.29523
     2010.61739        -5.13334         8.31316
     2010.62012        -0.01729         8.44732
     2010.62286         3.82085         8.36565
     2010.62560        -0.66743         8.38743
     2010.62834         0.37950         8.54723
     2010.63107         2.92640         8.63574
     2010.63381        -0.82855         8.51342
     2010.63655         0.71204        14.20531
     2010.63929         3.00163         8.43096
     2010.64203        -2.44796         8.42905
     2010.64476        -4.58463         8.69316
     2010.64750         1.24667         8.48664
     2010.65024         2.10977         8.52310
     2010.65298         5.36547         8.71673
     2010.65572        -6.62345         8.25651
     2010.65845         5.42505         8.27736
     2010.66119         4.40913         8.43906
     2010.66393         1.66694         8.39104
     2010.66667         3.26533         8.46834
     2010.66940         0.05000         8.24733
     2010.67214        -1.70742         8.36862
     2010.67488        10.16927         8.55479
     2010.67762         5.22938         8.28079
     2010.68036         6.28112         8.33857
     2010.68309         7.21024         8.33611
     2010.68583         4.29438         8.35214
     2010.68857         5.74227         8.61298
     2010.69131         1.08392         8.53716
     2010.69405        -0.44798         8.51723
     2010.69678         3.04961         8.28755
     2010.69952        11.41084         8.24859
     2010.70226         3.46375         8.45463
     2010.70500         0.69016         8.32252
     2010.70773         8.31233         8.35345
     2010.71047        11.63128         8.80125
     2010.71321         8.06129         8.32653
     2010.71595        22.41223        17.33179
     2010.71869        13.07882        17.92300
     2010.72142         6.13293         8.51569
     2010.72416        -5.49856         8.56364
     2010.72690         3.88174         8.55384
     2010.72964         1.27911         8.33310
     2010.73238        -2.55854         8.32329
     2010.73511         5.97287         8.34701
     2010.73785        -1.68680         8.47393
     2010.74059         5.86801         8.50800
     2010.74333         7.87810         8.48918
     2010.74606         6.28022         8.85777
     2010.74880         4.75014         8.42177
     2010.75154        10.05794         8.34703
     2010.75428         7.26924         8.55134
     2010.75702        -2.12984         8.61499
     2010.75975        -1.04467         8.36680
     2010.76249         2.27507         8.41258
     2010.76523         4.80040         8.40015
     2010.76797        -3.74946         9.27371
     2010.77892        -9.99570        20.05406
     2010.78166         1.70294         8.44167
     2010.78439         1.62069         8.63422
     2010.78713         6.24200         8.54292
     2010.78987        -3.53353         8.28833
     2010.79261         0.50659         8.46451
     2010.79535        -0.18697         8.53032
     2010.79808        -4.61573         8.42202
     2010.80082        -1.99118         8.40775
     2010.80356         7.15171         8.39346
     2010.80630         8.83817         8.83727
     2010.80903         7.21317         8.43336
     2010.81177        16.45045         8.34481
     2010.81451        10.64516         8.44462
     2010.81725         2.74917         8.27543
     2010.81999         9.35756         8.21485
     2010.82272         8.69375         8.50001
     2010.82546         4.79721         8.41734
     2010.82820         0.98235         9.28752
     2010.83641        -2.29509         8.31419
     2010.83915        -4.16318         8.35560
     2010.84189         2.22653         8.39279
     2010.84463         6.15448         8.43793
     2010.84736        12.95571         8.58095
     2010.85010        11.41232         8.81708
     2010.85284         5.51849         8.37759
     2010.85558        -1.53836         8.54556
     2010.85832        -0.06025         8.33027
     2010.86105       -18.29071         8.87116
     2010.86379        -2.26377         8.38637
     2010.86653        -6.57572         8.52857
     2010.86927        -5.38066         8.33957
     2010.87201        -5.60591         8.42197
     2010.87474        -0.78700         8.74209
     2010.87748         2.95488         8.53700
     2010.88022         5.58379         8.55204
     2010.88296         1.39769         8.92234
     2010.88569        -1.83368         8.32633
     2010.88843        -9.45166         8.83777
     2010.89117       -18.57349         8.67777
     2010.89391         0.17668         8.18813
     2010.89665         2.37769         8.51089
     2010.89938        -7.99085         8.34233
     2010.90212         8.44949         8.45107
     2010.90486        -4.57954         8.23683
     2010.90760         0.59500         8.39744
     2010.91034       -11.92158         8.68847
     2010.91307        -3.36544         8.20236
     2010.91581        -3.04645         8.22115
     2010.91855        -3.20361         8.20582
     2010.92129        -8.99840         8.21691
     2010.92402       -14.45281         8.16782
     2010.92676        -1.68331         8.34735
     2010.92950        -3.89964         8.17787
     2010.93224        -0.56935         8.28469
     2010.93498         4.32306         8.30159
     2010.93771         0.10883         8.20412
     2010.94045        -0.29089         8.42715
     2010.94319        -7.44948         8.19319
     2010.94593         8.37663         8.22581
     2010.94867        -0.38179         8.43869
     2010.95140         0.26524         8.39905
     2010.95414       -11.91850         8.27277
     2010.95688        -8.89669         8.30658
     2010.95962        -2.91467         8.43051
     2010.96235        -3.33282         8.38539
     2010.96509        -0.36939         8.39420
     2010.96783         3.60080         8.46820
     2010.97057         2.65742         8.48022
     2010.97331         1.34427         8.25481
     2010.97604        -3.70066         8.44550
     2010.97878         4.62624         8.22824
     2010.98152        -6.37871         8.29358
     2010.98426         0.45974         8.49846
     2010.98700        -4.12694         8.51825
     2010.98973         0.78247         8.48296
     2010.99247        -1.02541         8.68557
     2010.99521        -3.52988         8.78835
     2010.99795         2.28395         8.37044
     2011.00068        -6.28595         8.16278
     2011.00342        -3.44317         8.37091
     2011.00616        -8.31592         8.27387
     2011.00890        -8.96656         8.56585
     2011.01164       -11.88807         8.22428
     2011.01437       -14.55225         8.16193
     2011.01711        -9.29563         8.67597
     2011.01985       -10.92671         8.55086
     2011.02259       -16.09962         8.20888
     2011.02533       -13.14033         8.41676
     2011.02806        -5.01380         8.58051
     2011.03080        -5.91715         8.17001
     2011.03354        -2.91303         8.23309
     2011.03628       -14.01831         8.26022
     2011.03901       -10.97229         8.18692
     2011.04175        -4.28064         8.21983
     2011.04449        -3.97276         8.16707
     2011.04723        -5.20771         8.41824
     2011.04997        -9.49777         8.47304
     2011.05270       -10.00871         8.25219
     2011.05544        -5.89982         8.16355
     2011.05818        -7.31564         8.31021
     2011.06092       -12.50988         8.34138
     2011.06366        -3.31699         8.19289
     2011.06639        -9.49893         8.25849
     2011.06913        -8.15151         8.70193
     2011.07187        -9.81225         8.19220
     2011.07461       -11.07113         8.25249
     2011.07734        -9.77577         8.19784
     2011.08008       -14.42385         8.22460
     2011.08282       -16.44794         8.41367
     2011.08556        -8.45526         8.27658
     2011.08830        -7.62016         8.22364
     2011.09103        -5.46752         8.22600
     2011.09377       -11.78384         8.22038
     2011.09651        -4.25345         8.45757
     2011.09925        -9.04204         8.20269
     2011.10198        -5.22991         8.66063
     2011.10472       -11.47615         8.21546
     2011.10746       -10.43176         8.20323
     2011.11020        -6.78788         9.63591
     2011.11294        -3.62366         8.21663
     2011.11567        -0.17898         8.25323
     2011.11841        -0.62484         8.42377
     2011.12115         1.54413         8.43019
     2011.12389         1.82210         8.72828
     2011.12663        -6.30803         8.51600
     2011.12936        -5.93106         8.52287
     2011.13210        -3.27891         8.38411
     2011.13484        -7.00329         8.19975
     2011.13758        -4.66741         8.21450
     2011.14031         1.22728         8.19409
     2011.14305        -3.69669         8.28933
     2011.14579       -20.25009         8.68906
     2011.14853        -6.68469         8.20842
     2011.15127        -2.51854         8.25920
     2011.15400        -2.07176         8.25891
     2011.15674        -6.46822         8.20897
     2011.15948         2.70678         8.35238
     2011.16222        -6.98745         8.16543
     2011.16496        -9.19487         8.18435
     2011.16769       -10.71093         8.29233
     2011.17043       -16.41483         8.18446
     2011.17317       -15.43786         8.33755
     2011.17591       -17.80998         8.16306
     2011.17864        -4.96269         8.32723
     2011.18138        -7.29034         8.25236
     2011.18412        -9.34419         8.30864
     2011.18686        -6.68750         8.25543
     2011.18960        -4.57035         8.14340
     2011.19233        -7.98049         8.15586
     2011.19507        -1.28390         8.43692
     2011.19781        -0.84748         8.42563
     2011.20055        -5.99874         8.30461
     2011.20329         2.43429         8.34709
     2011.20602        -1.60919         8.40747
     2011.20876        -1.44428         8.42133
     2011.21150        -6.68911         8.53052
     2011.21424        -9.37045         8.32644
     2011.21697        -6.81072         8.61487
     2011.21971         1.47713         8.45217
     2011.22245        -9.99622         8.33413
     2011.22519        -9.40025         8.26646
     2011.22793        -8.13412         8.43838
     2011.23066        -7.55662         8.48689
     2011.23340         2.17492         8.25283
     2011.23614       -11.41178         8.42831
     2011.23888        -9.45222         8.28114
     2011.24162        -7.11982         8.29091
     2011.24435        -7.22334         8.66063
     2011.24709         0.27874         8.27970
     2011.24983         7.67791         8.49935
     2011.25257         3.85758         8.21745
     2011.25530        -7.45937         8.36323
     2011.25804        -0.42498         8.76601
     2011.26078        -9.00818         8.60799
     2011.26352       -10.97085         8.28038
     2011.26626        -6.62419         8.42273
     2011.26899         0.54204         8.22312
     2011.27173        -2.23578         8.36982
     2011.27447         2.83312         8.80589
     2011.27721        -6.71155         8.53429
     2011.27995        -2.45649         8.25837
     2011.28268        -6.00651         8.26003
     2011.28542       -15.28470         9.99089
     2011.28816       -15.48392         8.22976
     2011.29090        -6.78675         8.28042
     2011.29363        -4.09612         8.43934
     2011.29637        -7.59997         8.22563
     2011.29911        -5.07095         8.27852
     2011.30185        -2.32439         8.47715
     2011.30459        -6.69449         8.20313
     2011.30732        -6.83426         8.26631
     2011.31006        -3.19769         8.24965
     2011.31280        -2.74208         8.25188
     2011.31554        -2.24648         8.22622
     2011.31828        -6.59482         8.24649
     2011.32101        -3.32329         8.26884
     2011.32375        -7.28991         8.21089
     2011.32649       -15.84312         8.22279
     2011.32923       -20.23548         8.24666
     2011.33196        -3.76106         8.37272
     2011.33470       -11.65252         8.35809
     2011.33744       -16.95708         8.38579
     2011.34018        -8.52544         8.44365
     2011.34292        -6.69559         8.49277
     2011.34565        -0.79621         8.43416
     2011.34839       -12.30705         8.37487
     2011.35113       -11.71973         8.39359
     2011.35387       -12.73046         8.39661
     2011.35661       -12.46433         8.22841
     2011.35934       -14.72951         8.19967
     2011.36208       -17.68959         8.41920
     2011.36482       -11.95850         8.40959
     2011.36756        -9.35398         8.44796
     2011.37029        -5.51572         9.00666
     2011.37303        -9.68639        10.00479
     2011.37577       -12.14757         8.47141
     2011.37851       -15.81720         8.52408
     2011.38125       -16.01156         8.45368
     2011.38398        -7.43202         8.43889
     2011.38672        -6.23847         8.44395
     2011.38946        -9.66291         8.40004
     2011.39220        -9.10912         8.40132
     2011.39493        -1.09523         8.39696
     2011.39767       -11.80866        14.05162
     2011.41410        -1.42789        15.63421
     2011.41684        -3.57607        19.56226
     2011.41958        -3.37678         8.45463
     2011.42231        -2.57797         8.47639
     2011.42505         3.97756         8.54900
     2011.42779         7.34316         8.78726
     2011.43053        -0.25644         8.54751
     2011.43326        -2.54522         8.52738
     2011.43600        -3.93302         8.48974
     2011.43874         0.45184         8.43390
     2011.44148        -2.43117         8.57793
     2011.44422        -6.03424         8.70143
     2011.44695        -0.49252         8.53592
     2011.44969        -1.59415         8.47656
     2011.45243        -4.55352         8.46710
     2011.45517        -7.23736         8.58024
     2011.45791        -5.83949         8.81228
     2011.46064        -1.59050         8.48563
     2011.46338        -7.82220         8.54697
     2011.46612         0.24774         8.58584
     2011.46886         5.55904         9.04981
     2011.47159         2.26787         8.62022
     2011.47433         1.17701         8.47896
     2011.47707         5.24140         8.81098
     2011.47981        -0.36619         8.47923
     2011.48255        -8.44224         8.58627
     2011.48528         1.14575         8.49186
     2011.48802         7.30357        10.42070
     2011.49076         2.91963         9.26634
     2011.49350         7.27345         8.62796
     2011.49624        -1.34022         8.62100
     2011.49897         3.06814         8.81009
     2011.50171         2.29341         8.74213
     2011.50445        -4.73652         8.51478
     2011.50719        -2.54303         8.51869
     2011.50992         2.20883        11.37686
     2011.51266        10.23216         8.71167
     2011.51540         8.00763         8.61392
     2011.51814         4.82978         8.54884
     2011.52088         7.24217         8.52839
     2011.52361         8.52856         8.75191
     2011.52635         3.89844         9.18897
     2011.52909         1.56366         8.79183
     2011.53183         5.87985         8.62162
     2011.53457         1.69916         8.58731
     2011.53730        -0.05024         8.61526
     2011.54004        -0.47200         8.55614
     2011.54278         0.58105         8.71031
     2011.54552        10.87339         8.47906
     2011.54825         5.88638         8.54094
     2011.55099        11.26707         8.86092
     2011.55373         1.05450         8.55070
     2011.55647        -0.93596         8.62197
     2011.55921        -2.42346         8.80076
     2011.56194         6.44195         8.56897
     2011.56468         5.48483         8.49205
     2011.56742         5.28307         8.56281
     2011.57016         1.19924         8.86034
     2011.57290        11.28459         8.52006
     2011.57563         4.57368         8.72560
     2011.57837        13.09014         8.70721
     2011.58111         0.44414         8.46826
     2011.58385        13.94291         8.54052
     2011.58658        13.84979         8.82649
     2011.58932        11.48867         8.69038
     2011.59206        11.19078         8.48707
     2011.59480        18.31568         8.59800
     2011.59754        13.99332         8.63892
     2011.60027        17.09525         8.59473
     2011.60301        16.45917         8.57019
     2011.60575        19.66108         8.68616
     2011.60849        16.42617         9.44174
     2011.61123         7.52535         8.97590
     2011.61396        12.23843         8.66522
     2011.61670        10.29021         9.90674
     2011.61944         6.22100         8.74125
     2011.62218        11.20018         8.77973
     2011.62491        15.59689         8.59171
     2011.62765        12.65868         8.90101
     2011.63860        22.88240        36.37054
     2011.64134        19.68089         8.87408
     2011.64408        10.95621         8.59469
     2011.64682        15.85950         8.56348
     2011.64956        19.56220         8.78676
     2011.65229        11.99077         8.76668
     2011.65503        18.98006         9.27823
     2011.65777        19.90176         8.83408
     2011.66051        19.39017         8.94913
     2011.66324        17.35783         8.66553
     2011.66598        15.09038         8.82183
     2011.66872        21.84151         8.80019
     2011.67146        16.75351         8.67193
     2011.67420        22.54840         8.69936
     2011.67693        13.97650         8.53924
     2011.67967        13.61006         8.54330
     2011.68241         9.75630         8.83952
     2011.68515        21.38332         8.84799
     2011.68789        12.17400         8.83318
     2011.69062        15.10600         8.71228
     2011.69336        17.30987         8.67655
     2011.69610        19.30320         8.86346
     2011.69884        21.55080         8.90429
     2011.70157        16.67125         8.99364
     2011.70431        14.45940         8.70512
     2011.70705        17.39568         8.93957
     2011.70979        16.87135         8.84745
     2011.71253        23.97567         9.01900
     2011.71526        17.64715         9.27926
     2011.71800         7.71589         8.75474
     2011.72074        11.25289         8.61102
     2011.72348         6.68248         8.98596
     2011.72621        18.74553         8.68896
     2011.72895        22.52618         8.46954
     2011.73169        23.67391         9.19391
     2011.73443        22.15459         8.94015
     2011.73717        21.21598         8.75710
     2011.73990        13.22528         8.85858
     2011.74264        24.31031         8.83962
     2011.74264        30.73457         8.82330
     2011.74538        20.85663         8.97210
     2011.75086        17.36442         9.10355
     2011.75359        20.74870         9.00893
     2011.75633        19.89680         9.88069
     2011.75907        21.62931         8.77198
     2011.76181        13.04616         8.84321
     2011.76454        14.30612         8.98232
     2011.76728        15.31196         8.85686
     2011.77002        12.44884         9.78317
     2011.77276        25.72792         9.42060
     2011.77550        22.33320        11.30752
     2011.77823        13.44077         8.84654
     2011.78097        15.65558         8.82701
     2011.78371        21.08114         9.03682
     2011.78645        20.42530         8.87369
     2011.78919         7.07117         8.95052
     2011.79192        20.87211        13.68290
     2011.79466        12.15376         8.77658
     2011.79740        14.75679         8.93512
     2011.80014        14.04104         8.69224
     2011.80287        13.96662         8.66472
     2011.80561        13.32367         8.66617
     2011.80835        12.16581         8.61531
     2011.81109         4.86677         8.85396
     2011.81383         5.52898         8.94969
     2011.81656         5.50961         9.04093
     2011.81930        10.34124         8.56328
     2011.82204        15.16725         8.99726
     2011.82478        13.77440         9.11507
     2011.82752         4.65393         8.57004
     2011.83025        12.18847         8.96969
     2011.83299         6.15514         8.81904
     2011.83573        11.90493         9.16767
     2011.83847        14.47723         9.07235
     2011.84120        12.44054         8.52065
     2011.84394         7.62425         9.01099
     2011.84668         4.47025         8.83090
     2011.84942         8.34181         9.02956
     2011.85216        10.52356         9.12483
     2011.85489         7.49490         8.59412
     2011.85763        10.46950         9.55183
     2011.86037        17.85543         8.94899
     2011.86311        18.92656         8.89146
     2011.86585        13.94943         9.07006
     2011.86858        19.60053         8.79725
     2011.87132        15.44313         9.12266
     2011.87406         5.60414         9.12653
     2011.87680        16.37742         9.10058
     2011.87953        12.90812         8.61216
     2011.88227         9.42158         8.51320
     2011.88501         9.48693         8.84815
     2011.88775         2.68147         8.54635
     2011.89049         9.14154         8.64966
     2011.89322         3.98711         9.01781
     2011.89596        14.62598         8.86551
     2011.89870        14.57462         8.74098
     2011.90144         9.37445         9.22232
     2011.90418        17.25712         8.77705
     2011.90691        19.09289         8.81927
     2011.90965         9.56668         8.94948
     2011.91239        19.48548         8.84141
     2011.91513         1.79934         8.62614
     2011.91786         7.62020         9.07984
     2011.92060         2.46312         8.71590
     2011.92334        -0.09223         8.61810
     2011.92608        12.62054         8.63905
     2011.92882         5.00166         8.57834
     2011.93155         8.46563         8.63280
     2011.93429         8.04317         8.94874
     2011.93703         5.79813         8.72615
     2011.93977         3.77471         8.66442
     2011.94251         7.27704         8.88710
     2011.94524         5.32495         8.57639
     2011.94798        17.68588         8.70402
     2011.95072         8.95910         8.65311
     2011.95346         5.53212         8.91549
     2011.95619         5.81146         9.08819
     2011.95893         5.55246         8.43751
     2011.96167         4.25843         8.53471
     2011.96441        13.61612         9.23329
     2011.96715         8.52622         8.37525
     2011.96988         4.53476         8.84326
     2011.97262         3.25397         8.59639
     2011.97536         4.51812         8.45315
     2011.97810        11.89564         8.48551
     2011.98084        12.36398         8.43066
     2011.98357        10.14047         8.57997
     2011.98631        14.96885         8.38134
     2011.98905        10.19897         8.28954
     2011.99179        11.64784         8.41799
     2011.99452         6.07452         8.32805
     2011.99726        10.34872         8.30891
     2012.00000        17.23404         8.27479
     2012.00274        25.59969        13.54815
     2012.00548        23.12268        13.14478
     2012.00821        12.58654         8.53132
     2012.01095        10.44128         8.43194
     2012.01369         9.55831         8.31278
     2012.01643         9.44197         8.48339
     2012.01916        -2.58208         8.31023
     2012.02190        -5.02328         8.26535
     2012.02464        11.92593         8.63688
     2012.02738         7.73891         8.29794
     2012.03012         9.58913         8.38069
     2012.03285        14.96301         8.51430
     2012.03559         5.52361         8.52525
     2012.03833        -6.98656         8.42114
     2012.04107         5.92120         8.41216
     2012.04381        -4.31579         8.51543
     2012.04654         5.93483         8.52250
     2012.04928         9.37327         8.43260
     2012.05202        14.21437         8.30700
     2012.05476         7.29826         8.72469
     2012.05749         5.06595         8.53098
     2012.06023         8.20704         8.54349
     2012.06297         6.34740         8.34110
     2012.06571        11.94636         8.36248
     2012.06845         8.58621         8.66470
     2012.07118         9.30596         8.34171
     2012.07392        10.36412         8.54608
     2012.07666        19.23503         8.51110
     2012.07940         6.72269         8.31613
     2012.08214         8.01321         8.42017
     2012.08487        13.98380         8.58290
     2012.08761         2.36630         8.26595
     2012.09035         6.00433         8.66201
     2012.09309        13.81062         8.45312
     2012.09582        14.01063         8.49472
     2012.09856        16.13304         9.72712
     2012.10678         5.45553         8.49477
     2012.10951        14.18530         8.84852
     2012.11225         7.98272        10.41684
     2012.11499         9.43677         8.79022
     2012.11773        12.45776         8.49202
     2012.12047        15.10972         8.53543
     2012.12320        14.51835         8.66403
     2012.12594         7.63338         8.52499
     2012.12868         2.90153         8.43916
     2012.13142         5.29712         8.70454
     2012.13415         9.13885         8.60264
     2012.13689         7.62622         8.74157
     2012.13963         4.33196        10.62215
     2012.14237         6.84069         8.66490
     2012.14511         9.97563         8.74530
     2012.14784         8.51143         8.51839
     2012.15058        18.95575         8.76671
     2012.15332        -2.20990         8.46237
     2012.15606         8.54449         8.49696
     2012.15880         7.28905         8.57711
     2012.16153         6.29639         8.39898
     2012.16427        -7.72238         8.63136
     2012.16701        10.18626         8.77588
     2012.16975         9.83402         8.48307
     2012.17248         8.99946         8.50756
     2012.17522         9.20683         8.49712
     2012.17796         3.53332         8.62854
     2012.18070         5.79392         9.00555
     2012.18344         5.44517         8.64111
     2012.18617         3.86243         8.41433
     2012.18891         2.94796         8.52867
     2012.19165         8.84563         8.55351
     2012.19439         8.99641         9.06020
     2012.19713        -6.33771         8.59938
     2012.19986        14.50666        12.21610
     2012.20260        18.17304        15.41161
     2012.20534        10.31560         8.57992
     2012.20808         5.68171        12.12853
     2012.21355         8.32394        13.52414
     2012.21629         6.64429         8.57496
     2012.21903         4.68969         8.41353
     2012.22177       -12.09478         8.45236
     2012.22450         1.84642         8.47706
     2012.22724        10.40933         8.29549
     2012.22998         7.52443         8.51521
     2012.23272         5.82733         8.71039
     2012.23546        11.16041         8.64987
     2012.23819        11.14488         8.69103
     2012.24093         7.19584         8.69117
     2012.24367         9.91213         8.64930
     2012.24641         7.22037         8.40581
     2012.24914         4.53218         8.55563
     2012.25188         9.39774         8.51789
     2012.25462         8.72036         8.94308
     2012.25736         9.71843         8.46563
     2012.26010         6.00975         8.45050
     2012.26283        -2.68056         8.29197
     2012.26557         1.99516         8.22562
     2012.26831         8.59784         8.40332
     2012.27105         7.71984         8.49561
     2012.27379         3.18412         8.38473
     2012.27652         5.17712         8.36241
     2012.27926         5.57810         8.49420
     2012.28200         1.60082         8.35570
     2012.28474         1.04200         8.82703
     2012.28747         3.71866         8.46228
     2012.29021         8.62627         8.33380
     2012.29295         1.65564         8.32560
     2012.29569         0.48883         8.39378
     2012.29843        -2.41821         8.57946
     2012.30116         4.94405         8.34133
     2012.30390        -2.82242         8.47235
     2012.30664         2.49409         9.26746
     2012.30938        16.24653        13.35128
     2012.31211         4.12925         8.57809
     2012.31485         4.03431         9.10490
     2012.31759         4.90585         8.13113
     2012.32033         7.42573         8.36150
     2012.32307         1.50019         8.44004
     2012.32580         1.73148         8.23808
     2012.32854         6.31035         8.37108
     2012.33128        10.81538         8.37115
     2012.33402         5.14538         8.41658
     2012.33676         3.62034         8.41434
     2012.33949         0.80153         8.23155
     2012.34223        -6.99967         8.29612
     2012.34497        -3.95128         8.40176
     2012.34771        -4.29420         8.33231
     2012.35044        -0.97035         8.45065
     2012.35318        14.76095         8.33428
     2012.35592        -1.43202         8.20871
     2012.35866        -3.60036         8.24009
     2012.36140         6.89824         8.17234
     2012.36413         1.64120        12.63494
     2012.36961         4.69271        12.92628
     2012.37235         2.89075         8.23833
     2012.37509         9.33974         8.20312
     2012.37782        12.34907         8.37727
     2012.38056        -6.92454         8.54954
     2012.38330         1.16495         8.37419
     2012.38604        -0.56243         8.87180
     2012.38877         8.86045         8.41275
     2012.39151         7.82408         8.34627
     2012.39425         4.72303         8.22679
     2012.39699         8.91499         8.39695
     2012.39973         3.01922         8.65634
     2012.40246         1.36050         8.54641
     2012.40520         1.93018         8.40376
     2012.40794         2.76785         8.18099
     2012.41068         8.81236         8.37399
     2012.41342         4.59196         8.71267
     2012.41615         7.25212         8.26197
     2012.41889        17.19303         8.37384
     2012.42163         1.86912         8.47104
     2012.42437         5.51831         8.63145
     2012.42710         6.09668         8.24210
     2012.42984         4.87024         8.42437
     2012.43258         6.28131         8.22026
     2012.43532        12.83849         8.34312
     2012.43806         5.36504         8.36155
     2012.44079         2.85432         8.19489
     2012.44353        -1.28180         8.21811
     2012.44627         7.55482         8.46732
     2012.44901         6.41285         8.21106
     2012.45175         8.53350         8.44373
     2012.45448        10.18148        12.87149
     2012.45722        12.23523         8.46961
     2012.45996        11.26017         8.50479
     2012.46270         8.51231         8.22400
     2012.46543         6.06183         8.39058
     2012.46817         4.24181         8.27738
     2012.47091        15.41121         8.25268
     2012.47365         9.34933         8.29701
     2012.47639        -0.43857         9.33930
     2012.47912         2.33517         8.32457
     2012.48186        -2.12568         8.34004
     2012.48460         7.51743         8.19680
     2012.48734         3.27188         8.26884
     2012.49008         6.02632         8.28680
     2012.49281        11.59731         8.28607
     2012.49555        11.17732         8.16470
     2012.49829         4.75247         8.33896
     2012.50103         5.58693         8.21919
     2012.50376         9.37766         8.28326
     2012.50650         2.65093         8.30018
     2012.50924         4.09554         8.43001
     2012.51198         3.04337         8.39952
     2012.51472         7.45682         8.15624
     2012.51745         5.90469         8.43902
     2012.52019        10.84152         8.25475
     2012.52293         9.50692         8.30101
     2012.52567         5.02795         8.18330
     2012.52841        10.98118         8.17815
     2012.53114         3.23663         8.39507
     2012.53388         2.87517         8.24439
     2012.53662         6.16752         8.30338
     2012.53936         4.39893         8.70304
     2012.54209         9.09404         8.18727
     2012.54483        13.56751         8.36965
     2012.54757        11.55173         8.19447
     2012.55031        16.21573         8.58631
     2012.55305         7.23408         8.23022
     2012.55578        15.16102         8.18630
     2012.55852         7.14908         8.15867
     2012.56126        11.39367         8.33105
     2012.56400        19.29031         8.39881
     2012.56674        17.91256         8.26029
     2012.56947        12.35208         8.27531
     2012.57221        14.32825         8.45602
     2012.58042        -7.20926        27.41720
     2012.58316         6.36291         8.43280
     2012.58590        12.70053         8.24087
     2012.58864        17.55322         8.32102
     2012.59138         8.98848         8.32895
     2012.59411        18.79659         8.26459
     2012.59685        11.84427         8.25631
     2012.59959        14.02427         8.23291
     2012.60233        11.48226         8.42517
     2012.60507        12.69091         8.18898
     2012.60780        13.58478         8.20124
     2012.61054        18.59214         8.24315
     2012.61328        12.25468         8.19375
     2012.61602        12.04140         8.24371
     2012.61875        15.07425         8.38999
     2012.62149        18.48204         8.23547
     2012.62423        16.04469         8.57673
     2012.62697        21.12395         8.38509
     2012.62971         9.77316         8.18583
     2012.63244        13.07583         8.25242
     2012.63518        24.95724         8.26958
     2012.63792        11.89611         8.28309
     2012.64066        13.88704         8.44520
     2012.64339        12.93221         8.44495
     2012.64613         9.67672         8.21908
     2012.64887        11.76391         8.24358
     2012.65161        23.10025         8.80637
     2012.65435        14.72897         8.78481
     2012.65708        15.73571         8.59402
     2012.65982        14.40583         8.88166
     2012.66256        12.54344         8.29744
     2012.66530        18.92032         8.50731
     2012.66804        10.94109         8.48183
     2012.67077        13.05901         8.31082
     2012.67351        12.43792         8.70117
     2012.68172        26.89080        13.96186
     2012.68446        14.73644         8.41849
     2012.68720        18.00965         8.28485
     2012.68994        15.61417         8.20422
     2012.69268        26.29658         8.42389
     2012.69541        11.14368         8.63477
     2012.69815         9.53931         8.43505
     2012.70089        11.01893         8.67063
     2012.70363        13.49623         8.40221
     2012.70637        14.84036         8.22619
     2012.70910        13.98844         8.43748
     2012.71184        17.92468         8.37656
     2012.71458        19.54125         8.24866
     2012.71732        19.03206         8.34769
     2012.72005        21.69448        11.41251
     2012.72827        26.48588        20.11854
     2012.73101        13.45513         8.69278
     2012.73374        14.53669         8.52896
     2012.73648        11.57500         8.39575
     2012.73922         6.80320         8.71845
     2012.74196        11.87818         8.85383
     2012.74470        22.67831         8.27170
     2012.74743        12.77735         8.34071
     2012.75017        14.56245         8.52205
     2012.75291        14.73530         8.55855
     2012.75565         6.21603         8.47547
     2012.75838        13.28320         8.41457
     2012.76112        13.85641         8.41372
     2012.76386        14.34027         8.31680
     2012.76660        16.26665         8.52450
     2012.76934        16.36055         8.66060
     2012.77207        13.75404         8.39033
     2012.77481         8.73250         8.37216
     2012.77755         8.28580         8.44216
     2012.78029         6.78035         8.77259
     2012.78303        18.69602         8.35273
     2012.78576        22.17214         8.33845
     2012.78850        18.50883         8.31999
     2012.79124        15.57671         8.39988
     2012.79398        12.71689         8.37900
     2012.79671         6.94861         8.36556
     2012.79945        22.56695        10.87040
     2012.80219        16.00917         8.81232
     2012.80493        12.66431         8.37436
     2012.80767        12.17452         9.18964
     2012.81040         5.52865         8.60424
     2012.81314         4.84062         9.37237
     2012.81588         3.10448         8.60133
     2012.81862         5.24039         8.68153
     2012.82136        12.46606         8.51928
     2012.82409         7.15197         8.60519
     2012.82683         8.46723         8.37136
     2012.82957        10.91200         9.13887
     2012.83231        16.54121         8.33588
     2012.83504         7.70574         8.35314
     2012.83778         4.70308         8.58164
     2012.84052         3.00510         8.53174
     2012.84326        11.66968         8.79764
     2012.84600         9.92587         8.60604
     2012.84873         2.12069         8.43680
     2012.85147        17.57545         8.40253
     2012.85421         1.53193         8.65726
     2012.85695         3.62539         8.35548
     2012.85969         5.30910         8.37686
     2012.86242         4.02371         8.58713
     2012.86516        14.25560         8.55716
     2012.86790         8.27856         8.83922
     2012.87064         7.76764         8.74840
     2012.87337         6.41087         8.56317
     2012.87611         2.33231         9.05275
     2012.87885        16.56975         8.44816
     2012.88159        10.86624         8.24520
     2012.88433         8.49371         8.24786
     2012.88706         5.95151         8.62782
     2012.88980        11.55932         8.43170
     2012.89254         3.91639         8.22283
     2012.89528        12.24339         8.27887
     2012.89802         6.37186         8.72157
     2012.90075         5.06053         8.45763
     2012.90349         1.59982         8.45068
     2012.90623        -0.97848         8.50400
     2012.90897        12.14252         8.51686
     2012.91170         4.13929        11.32794
     2012.91444         9.95309        10.79044
     2012.91718        15.69885        11.22937
     2012.91992        10.90008        11.75123
     2012.92266         7.05863        12.04648
     2012.92539         1.77593        11.30151
     2012.92813        11.13310        12.65612
     2012.93087         1.14761        11.05962
     2012.93361         7.48111        10.89446
     2012.93634         1.03205         9.30424
     2012.93908         4.51245         9.28004
     2012.94182         6.41154        10.19138
     2012.94456         6.82739        12.39283
     2012.94730         4.01387        12.83838
     2012.95003        -0.68109        14.05635
     2012.95277        13.52591         9.69208
     2012.95551         0.85540         9.06285
     2012.95825         7.00362         8.82828
     2012.96099         5.90751         8.64142
     2012.96372       -18.53392         8.54192
     2012.96646         7.25884         8.29222
     2012.96920         5.20156         8.50754
     2012.97194        10.40619         9.46259
     2012.97467        14.57279         8.62886
     2012.97741         9.34077         8.66022
     2012.98015         2.83601         8.99154
     2012.98289         5.89734         8.38281
     2012.98563        13.82239         8.55499
     2012.98836         8.31178         8.64837
     2012.99110         7.92232         8.61554
     2012.99384         7.32370         8.26850
     2012.99658         9.10655         8.56157
     2012.99932         2.90741         8.72517
     2013.00205         2.69381         8.42082
     2013.00479         2.16672         8.40037
     2013.00753         2.51733         8.42476
     2013.01027         5.87846         8.51743
     2013.01300         1.13482         8.76783
     2013.01574         5.30898         8.56747
     2013.01848         2.48149         8.32319
     2013.02122        -0.99417         8.42950
     2013.02396         1.75572         8.40105
     2013.02669        -3.47308         8.71035
     2013.02943         3.18929         8.36686
     2013.03217         5.32205         8.50189
     2013.03491        -1.18576         8.45573
     2013.03765         0.57379         8.56830
     2013.04038        -1.99350         8.86778
     2013.04312         1.66011         9.07969
     2013.04586         1.80555         8.64551
     2013.04860         0.61175         8.64710
     2013.05133         0.00186         8.46317
     2013.05407         1.80347         8.45840
     2013.05681         4.55003         8.36032
     2013.05955         1.52249         8.56061
     2013.06229         6.41496         8.73454
     2013.06502         4.94437         8.62871
     2013.06776         7.74829         8.61626
     2013.07050         6.75935         8.64728
     2013.07324        -1.63065         9.30032
     2013.07598         2.75257         8.35985
     2013.07871         1.20534         8.42841
     2013.08145         4.61050         9.05930
     2013.08419         8.91461         8.28491
     2013.08693         6.39252         8.39554
     2013.08966        -2.44352         8.39975
     2013.09240        -0.02007         8.34838
     2013.09514         6.19300         8.26924
     2013.09788        23.74451         8.78118
     2013.10062        10.79688         8.93182
     2013.10335         0.02791         8.33823
     2013.10609         3.85022         9.01381
     2013.11704         3.81471         9.25154
     2013.11978         1.24991         8.61236
     2013.12252         2.04336         8.28291
     2013.12526         1.67506         8.31973
     2013.12799         9.92035         8.42019
     2013.13073         5.53278         8.35959
     2013.13347         6.11792         8.61344
     2013.13621        14.50581         8.69764
     2013.13895         3.09087         8.38517
     2013.14168         3.52687         8.61646
     2013.14442         2.65783         9.03112
     2013.14716         6.14461         8.69169
     2013.14990         0.45772         8.51208
     2013.15264         2.67680         8.33006
     2013.15537         2.89092         8.35360
     2013.15811         2.90859         8.45069
     2013.16085         4.19493         8.34497
     2013.16359        -0.92346         8.31872
     2013.16632         6.23397         8.58311
     2013.16906         3.49356         8.45042
     2013.17180        -1.37834         8.25930
     2013.17454         3.86392         8.51728
     2013.17728         2.25196         8.78887
     2013.18001         0.26291         8.69309
     2013.18275        -2.58824         8.23414
     2013.18549         3.04527         8.25702
     2013.18823        -0.69311         8.28956
     2013.19097         0.80520         8.31578
     2013.19370         1.69705         8.27401
     2013.19644         7.09570         8.29041
     2013.19918         8.97772         8.28245
     2013.20192        11.03046         8.41961
     2013.20465         9.01229         8.26636
     2013.20739         4.98081         8.23394
     2013.21013         0.77752         8.61122
     2013.21287        -2.86390         8.62223
     2013.21561         2.34852         8.22250
     2013.21834         2.46870         8.48213
     2013.22108        -0.63637         8.24778
     2013.22382        -2.15202         8.48298
     2013.22656         3.68423         8.33801
     2013.22930         1.59279         8.37819
     2013.23203        12.20385         8.31737
     2013.23477        -1.22258        11.94599
     2013.24025        12.90283        12.61359
     2013.24298        -1.35199         8.63247
     2013.24572         9.87018         8.56997
     2013.24846         6.51555         8.51056
     2013.25120         3.01721         8.71160
     2013.25394        10.27864         8.38929
     2013.25667         8.94038         8.74444
     2013.25941        11.20262         8.57833
     2013.26215         6.50769         8.41178
     2013.26489        10.01983         8.89947
     2013.26762         6.22037         8.39112
     2013.27036        -2.84311         8.55545
     2013.27310         7.10842         8.73867
     2013.27584         5.81793         8.75143
     2013.27858         1.47813         8.58967
     2013.28131         4.34288         8.40527
     2013.28405         2.78087         8.35510
     2013.28679         2.14107         8.52721
     2013.28953         0.77993         8.57395
     2013.29227        -5.67368         8.58678
     2013.29500         5.60206         8.61649
     2013.29774         6.76923         8.71175
     2013.31691        12.43848         8.39121
     2013.31964         3.15347         8.38955
     2013.32238         4.93451         8.54972
     2013.32512         7.50788         8.35153
     2013.32786         2.27746         8.36288
     2013.33060        -0.32194         8.73677
     2013.33333         2.58338         8.41591
     2013.33607         2.68683         8.53534
     2013.33881         8.19174         8.38663
     2013.34155        11.70006         8.43733
     2013.34428         9.87783         8.35203
     2013.34702        10.11154         9.24582
     2013.34976        11.16669         8.41749
     2013.35250         5.67288         8.49171
     2013.35524         6.34884         8.56894
     2013.35797         6.70859         8.38973
     2013.36071         9.49489         8.88029
     2013.36345         6.10957         8.53269
     2013.36619         2.65375         8.43546
     2013.36893         9.98927         8.39248
     2013.37166        11.09773         8.38206
     2013.37440         3.84043         8.34626
     2013.37714         8.89241         8.50166
     2013.37988         6.06263         8.35105
     2013.38261         5.52955         8.38884
     2013.38535         9.03078         8.45277
     2013.38809         7.72727         8.53405
     2013.39083         4.40319         8.39667
     2013.39904         4.86538         9.86623
     2013.40178         2.38046         8.55740
     2013.40452        12.44780         8.32067
     2013.40726         9.03216         8.87804
     2013.40999        10.71233         8.61088
     2013.41273        16.60027         8.55267
     2013.41547         5.59258         8.62981
     2013.41821         8.16097         8.46929
     2013.42094        14.08504         8.64539
     2013.42368         8.02638         8.59611
     2013.42642        10.20590         8.61201
     2013.42916        11.64581         8.60153
     2013.43190        13.29287         8.58430
     2013.43463        11.77266         8.59268
     2013.43737         8.60189         8.61410
     2013.44011         9.98240         8.39445
     2013.44285        11.48727         8.35829
     2013.44559        13.25307         8.60736
     2013.44832         7.95912         8.61079
     2013.45106        11.12957         8.57896
     2013.45380         7.63652         8.61791
     2013.45654        11.32723         8.41125
     2013.45927         6.26788         9.84882
     2013.46201        15.52159         8.40851
     2013.46475         8.10983         8.67893
     2013.46749        14.17383         8.38648
     2013.47023        10.43395         8.59409
     2013.47296         2.03837         8.27948
     2013.47570        18.43526         8.32226
     2013.47844        10.06500        14.32722
     2013.48118        20.02112        13.50050
     2013.48392        13.42420         8.92948
     2013.48665        13.01202        10.82071
     2013.48939        10.48460         8.74384
     2013.49213        10.03878        10.03988
     2013.49487        10.98050        10.05957
     2013.49760        11.06144         9.19960
     2013.50034        12.59694         8.50761
     2013.50308        13.68088         8.30405
     2013.50582        20.91911         8.31032
     2013.50856        13.31253         8.29586
     2013.51129        10.97482         8.30052
     2013.51403         9.23582         8.51644
     2013.51677        11.70197         8.50037
     2013.51951         8.05541         8.21572
     2013.52225        12.49899         8.62208
     2013.52498         7.79617         8.63780
     2013.52772        13.05022         8.43780
     2013.53046        10.99900         8.91639
     2013.54689         8.51554        23.75759
     2013.54962        15.69433        21.02227
     2013.56057         9.00791        16.51501
     2013.56331         9.46150         8.40652
     2013.56605         7.95969         8.54533
     2013.56879        19.13820         8.38426
     2013.57153        18.12526         8.32376
     2013.57426        21.82043         8.54694
     2013.57700        17.80908         8.56096
     2013.57974        19.82602         8.35819
     2013.58248        15.27051         8.32650
     2013.58522        13.00659         8.39631
     2013.58795        15.55465         8.60720
     2013.59069        15.46010         8.39652
     2013.59343        14.17428         8.26534
     2013.59617        14.92301         8.54518
     2013.59890         9.91513         8.37566
     2013.60164        13.85627         8.41206
     2013.60438        18.16074         8.36949
     2013.60712        16.12451         8.54674
     2013.60986        12.32767         8.27999
     2013.61259        18.80125         8.31143
     2013.61533        10.26563         8.88756
     2013.61807         8.19138         8.47023
     2013.62081        15.01907         8.61642
     2013.62355        15.53453         8.32317
     2013.62628        11.50931         8.27639
     2013.62902         7.65723         8.28818
     2013.63176        13.63674         8.33921
     2013.63450        16.43752         8.54897
     2013.63723        16.53717         8.61615
     2013.63997        12.40089         8.29159
     2013.64271        13.27839         8.53332
     2013.64545        17.88649         8.33970
     2013.64819        10.89061         8.50612
     2013.65092        25.09925         8.34295
     2013.65366        22.40878         8.27575
     2013.65640        14.85328         8.33517
     2013.65914        20.73969         8.92608
     2013.66188        15.30022         8.53807
     2013.66461        12.22938         8.34663
     2013.66735        23.26014         9.01083
     2013.67009        17.84623         8.27686
     2013.67283        16.87997         8.75059
     2013.67556        14.97980         8.85331
     2013.67830        17.46797         8.34426
     2013.68104        22.47030         8.36839
     2013.68378        17.51544         8.31020
     2013.68652        10.39310         8.26710
     2013.68925        20.84379         8.28170
     2013.69199        14.58107         8.32134
     2013.69473        23.76935         8.43477
     2013.69747        18.84624         8.33134
     2013.70021        23.12448         8.48137
     2013.70294        14.45410         8.31836
     2013.70568        15.58214         8.49030
     2013.70842        19.90310         8.47174
     2013.71116        13.59100         8.43255
     2013.71389        17.85600         8.27605
     2013.71663        12.90499         8.30849
     2013.71937        19.98970         8.49526
     2013.72211        24.19009         8.31308
     2013.72485        24.87098         8.51898
     2013.72758        19.48527         8.30090
     2013.73032        12.62548         8.50897
     2013.73306        17.37827         8.50314
     2013.73580         7.73760         8.37554
     2013.73854         8.02071         8.30951
     2013.74127        13.32202         8.67551
     2013.74401        24.47541         8.44513
     2013.74675        17.46441         8.26234
     2013.74949        15.34772        12.40700
     2013.75222        11.79413         8.35329
     2013.75496         7.64132         8.52457
     2013.75770         2.96778         8.63235
     2013.76044         1.79135         8.33471
     2013.76318        10.92722         8.30848
     2013.76591        13.34415         8.74137
     2013.76865         8.64713         9.40586
     2013.77687         4.59004         9.01681
     2013.77960        11.88826         8.41060
     2013.78234         2.50014        10.12745
     2013.78508        -4.90316         8.35880
     2013.78782        -3.36837         8.45772
     2013.79055         2.66332         8.52818
     2013.79329         5.61585         8.51270
     2013.79603         6.62627         8.36167
     2013.79877         4.38710         8.49144
     2013.80151         7.74720         8.41000
     2013.80424         6.72240         8.44381
     2013.80698         4.26349         8.53879
     2013.80972         9.31257         8.55408
     2013.81246        11.70068         8.52697
     2013.81520         5.53518         8.49201
     2013.81793         3.52774         8.29929
     2013.82067         9.30321         8.36196
     2013.82341         7.97516         8.33532
     2013.82615        -1.71722        10.38562
     2013.82888         2.83880         8.91159
     2013.83162        13.21672         8.36722
     2013.83436        14.94448         8.71170
     2013.83710        11.90485         8.46225
     2013.83984        10.95734         8.43514
     2013.84257         7.45481         8.57983
     2013.84531         7.48403         8.40264
     2013.84805         2.88567         8.53877
     2013.85079        10.94412         9.09731
     2013.85352        15.39184         8.45902
     2013.85626         5.34145         8.37406
     2013.85900        10.66368         8.26581
     2013.86174        -0.53253         8.31985
     2013.86448        11.65803         8.40443
     2013.86721         6.54239         8.38158
     2013.86995         5.81505         8.39402
     2013.87269         8.62456         8.59153
     2013.87543        11.78081         8.40186
     2013.87817         6.60929         8.34793
     2013.88090        13.74200         8.40307
     2013.88364        18.16018         8.68008
     2013.88638         7.02975         8.66180
     2013.88912        -1.33561         8.33061
     2013.89185        -0.02845         8.29988
     2013.89459         1.64548         8.34286
     2013.89733         5.99451         8.32096
     2013.90007         4.56570         8.43520
     2013.90281         0.20944         8.56626
     2013.90554         2.87993         8.31149
     2013.90828         4.00701         8.77437
     2013.91102        -3.71752         8.30602
     2013.91376         0.67803         8.26328
     2013.91650         3.00542         8.62115
     2013.91923        -0.35022         8.42421
     2013.92197         5.26518         8.42581
     2013.92471         2.91065         8.61646
     2013.92745         4.92200         8.54479
     2013.93018         5.23694        14.68720
     2013.93292         6.02206         8.29390
     2013.93566        -3.21135         8.53986
     2013.93840         8.47601         8.30124
     2013.94114        -7.87434         8.25992
     2013.94387       -17.45802        14.43790
     2013.94661        -2.73933         8.54611
     2013.94935         4.49085         8.27767
     2013.95209        -0.88224         8.73153
     2013.95483        12.15994        21.22679
     2013.95756         6.49049         8.63868
     2013.96030        -2.96792         8.87736
     2013.96304         5.11348         8.37939
     2013.96578         3.39713         8.51501
     2013.96851         2.43560         8.32991
     2013.97125         6.79143         8.88987
     2013.97399         3.62136         9.17895
     2013.97673         2.07182         8.40818
     2013.97947         2.12353         8.37036
     2013.98220         1.23831         8.58716
     2013.98494        -0.30999         8.56594
     2013.98768         6.74720        17.00745
     2013.99589         2.38524        13.23576
     2013.99863       -10.54669         8.60979
     2014.00137        -3.71942         8.45029
     2014.00411        -6.95515         8.31464
     2014.00684        -0.71556         8.90726
     2014.00958        -1.72684         8.55779
     2014.01232        -5.24133         8.45255
     2014.01506         4.21033         8.65680
     2014.01780        -2.43044         8.97117
     2014.02053         3.11440         8.29085
     2014.02327         1.61771         8.61874
     2014.02601         9.37031         8.84559
     2014.02875         8.57214         8.56334
     2014.03149         2.79882         8.45336
     2014.03422        -2.14061         8.43500
     2014.03696         1.56739         8.39595
     2014.03970        -2.56356         8.44244
     2014.04244        -3.16993         8.62038
     2014.04517        -0.91242         8.69520
     2014.04791         1.17742         8.35577
     2014.05065        -0.56769         8.52045
     2014.05339        -2.06287         8.29002
     2014.05613         1.33443         8.31311
     2014.05886         2.82793         8.32884
     2014.06160        -1.73280         8.64609
     2014.06434         6.16796         8.77608
     2014.06708         8.90202         8.53530
     2014.06982         9.37196         8.48745
     2014.07255         0.62040         8.48598
     2014.07529         3.06208         8.56144
     2014.07803         6.41843         8.42917
     2014.08077        12.00969         8.50274
     2014.08350         9.87876         8.26247
     2014.08624         6.41893         8.46179
     2014.08898        29.58699        34.92862
     2014.09172         7.51989         8.68926
     2014.09446         7.33868         8.43286
     2014.09719         3.25134         8.77127
     2014.09993         9.21666         8.57073
     2014.10267         6.80022         8.39150
     2014.10541         9.11916         8.31755
     2014.10815         1.38636         8.34534
     2014.11088         8.36900         8.55135
     2014.11362         2.23099         8.31169
     2014.11636        18.59544         9.41528
     2014.11910         5.49293         8.87673
     2014.12183        14.28833        10.78497
     2014.12457         0.83121        11.37009
     2014.12731        15.22187         8.24896
     2014.13005        10.47302         8.27519
     2014.13279         7.27169         8.83110
     2014.13552        10.18209         8.67421
     2014.13826        -3.47280         9.39801
     2014.14100        11.11565         8.47995
     2014.14374         8.99047         8.39701
     2014.14648         4.37924         9.20266
     2014.14921        12.95963         8.73357
     2014.15195         7.83769         8.44442
     2014.15469        14.42514         8.39678
     2014.15743        12.41675         8.50367
     2014.16016         9.36815         8.88584
     2014.16290         7.72820         8.50078
     2014.16564        17.99077         8.45142
     2014.16838         5.93860         8.83017
     2014.17112         4.65074         8.55221
     2014.17385         3.29610         8.61877
     2014.17659        10.89102         8.43220
     2014.17933         8.24691         9.09150
     2014.18207         2.19905         8.56968
     2014.18480         5.02792         8.36436
     2014.18754        12.32094         9.44200
     2014.19028         6.71349         9.06013
     2014.19576        -0.10480         8.65360
     2014.19849         8.35459         8.41008
     2014.20123        -0.73876         8.43216
     2014.20397        -3.62680         8.62992
     2014.20671        10.57614         8.47099
     2014.20945         2.15302         8.43980
     2014.21218         2.83185         8.47830
     2014.21492        12.15427         8.86206
     2014.21766         7.03887         8.43194
     2014.22040         5.31952        13.07502
     2014.22313         4.21532         8.65463
     2014.22587        -3.67605         8.70073
     2014.22861        14.62169         8.42351
     2014.23135         8.15945         8.37308
     2014.23409         2.52908         8.73733
     2014.23682         4.82579         8.58030
     2014.23956         2.21113         8.72149
     2014.24230        -3.91466         8.31788
     2014.24504        -2.04637         9.44245
     2014.24778         1.92156         9.26068
     2014.25051         4.10336         8.51803
     2014.25325        -2.33265         8.40585
     2014.25599         6.88105         8.59910
     2014.25873         1.81445         8.48534
     2014.26146         0.93043         8.72462
     2014.26420         5.85474         8.54911
     2014.26694         2.65381         8.48317
     2014.26968         5.31815         8.38455
     2014.27515        -1.44390        12.13933
     2014.27789         4.86011         8.61341
     2014.28063         0.80749        12.62475
     2014.28337         2.70270        13.49699
     2014.28611         2.09318         8.65641
     2014.28884        -5.33607         8.77360
     2014.29158        -0.81202         8.48993
     2014.29432         3.74615         8.53071
     2014.29706         1.94768         8.48022
     2014.29979        -2.89053         8.63028
     2014.30253         8.81038         8.38644
     2014.30527         3.67950         8.67107
     2014.30801         1.92423         8.53387
     2014.31075         3.73927         8.46041
     2014.31348        -4.25454         8.43716
     2014.31622        -2.66907         8.37971
     2014.31896        -3.01544         8.34781
     2014.32170        -5.59832         8.53754
     2014.32444         2.58709         8.63144
     2014.32717        -1.26624         8.65546
     2014.32991         1.45549         8.42136
     2014.33265         1.03572         8.47012
     2014.33539         3.63762         8.40422
     2014.33812        -1.67000         8.60604
     2014.34086        -1.51532         8.43158
     2014.34360         3.02585         8.60097
     2014.34634        -0.22946        10.48819
     2014.34908         0.72290         8.58922
     2014.35181        -3.20261         8.70298
     2014.35455         1.00088         8.40408
     2014.35729        -4.06892         8.40968
     2014.36003        -7.71995         8.38309
     2014.36277        -0.07278         8.44660
     2014.36550        -1.36874         8.40491
     2014.36824         6.74203         8.48937
     2014.37098        -3.04640         8.53483
     2014.37372         4.46691         8.40622
     2014.37645         2.79023         8.41843
     2014.37919         1.63059         8.49246
     2014.38193        -2.01443         8.46053
     2014.38467         2.39401         8.71421
     2014.38741         0.07755         9.30292
     2014.39014         0.66628         8.90339
     2014.39288         5.16752         8.50155
     2014.39562         7.28560         8.70570
     2014.39836         4.39093         8.48474
     2014.40110        -1.55807         8.64290
     2014.40383        -1.06535         8.89875
     2014.40657        -4.58336         8.60458
     2014.40931         4.66627         8.43198
     2014.41205         3.71966         8.61171
     2014.41478         4.55012         8.39253
     2014.41752         1.58584         8.38324
     2014.42026         1.24428        22.83964
     2014.43395         7.81761         9.87180
     2014.43669         8.24860         9.94611
     2014.43943         4.81100        10.84607
     2014.44216         6.04863        12.72352
     2014.44490        -6.64375        11.17775
     2014.44764        -4.53485        10.17743
     2014.45038         5.60416        10.48085
     2014.45311        -0.96199         8.41107
     2014.45585        -0.50424         8.37409
     2014.45859        17.38857        15.99424
     2014.46133         6.37611         8.37634
     2014.46407         2.73552         8.40092
     2014.46680         4.66202         8.40533
     2014.46954        -0.89383         8.39920
     2014.47228         3.16238         8.36972
     2014.47502         5.81136         8.58903
     2014.47775         4.19169         8.86303
     2014.48049        18.32597         8.62983
     2014.48323        10.75410         8.66045
     2014.48597         7.97407         8.48970
     2014.48871         6.02655         8.59242
     2014.49144        14.21799         8.30046
     2014.49418         9.02455         8.30524
     2014.49692        17.72631         8.29173
     2014.49966        14.55876         8.92643
     2014.50240        10.10366         8.71172
     2014.50513        10.83443         8.33426
     2014.50787        13.60627         8.39035
     2014.51061        10.81162         8.24621
     2014.51335        11.19431         8.26809
     2014.51608        16.58116         8.42679
     2014.51882        10.30246         8.26346
     2014.52156        12.08258         8.53396
     2014.52430        12.16234         8.26147
     2014.52704        16.79724         8.30205
     2014.52977        10.75271         8.38881
     2014.53251        20.81618         8.26363
     2014.53525        19.95016         8.25708
     2014.53799        11.33491         8.27144
     2014.54073        23.77234         8.64463
     2014.54346        21.16157         8.31352
     2014.54620        22.94426         8.26341
     2014.54894        20.78933         8.26663
     2014.55168        15.43737         8.55681
     2014.55441        19.33802         8.46279
     2014.55715        20.77750         8.48927
     2014.55989        17.99419         8.45193
     2014.56263        20.06690         8.30579
     2014.56537         5.14560         8.31665
     2014.56810         5.05599         8.49765
     2014.57084        13.37396         8.34202
     2014.57358        12.26049         8.27153
     2014.57632        15.60237         8.31175
     2014.57906        21.80912         8.30718
     2014.58179        27.72199         8.44468
     2014.58453        15.40332         8.43735
     2014.58727        15.47981         8.74802
     2014.59001        13.07838         8.57623
     2014.59274        20.11496         8.41863
     2014.59548        15.43209        10.48655
     2014.59822        14.25187         8.82365
     2014.60096        11.90829         8.53101
     2014.60370         9.83312         8.47367
     2014.60643        13.67031         8.82585
     2014.60917        20.23882         8.63247
     2014.61191        30.34477         9.63086
     2014.61465        18.00806         8.87775
     2014.61739        15.54756         8.64182
     2014.62012        12.59275         8.89110
     2014.62286        12.80339         8.47335
     2014.62560        17.17260         8.42412
     2014.62834        16.23152         8.44820
     2014.63107        23.23021         8.40266
     2014.63381         6.52233         9.22148
     2014.63655        22.30689         8.50631
     2014.63929         6.91883         8.49656
     2014.64203         8.44807         8.40308
     2014.64476        15.54071         8.43817
     2014.64750        14.41313         8.48639
     2014.65024        13.83159         8.42255
     2014.65298        19.02328         8.50124
     2014.65572        16.55525         8.52570
     2014.65845        21.88632         8.40766
     2014.66119        12.28508         8.50781
     2014.66393        23.59970         8.59046
     2014.66667        19.93502         8.44643
     2014.66940        10.25192         8.78728
     2014.67214        14.01008         8.37787
     2014.67488        17.03872         8.38254
     2014.67762         7.77481         8.40157
     2014.68036        15.63209         8.46677
     2014.68309        15.12148         8.44043
     2014.68583         9.95537         8.81552
     2014.68857        21.17606         8.57738
     2014.69131        16.94968         8.37271
     2014.69405        16.06730         8.43813
     2014.69678        19.43470         8.40364
     2014.69952        19.08205         8.39270
     2014.70226        13.87197         8.33891
     2014.70500        13.69754         8.49771
     2014.70773        15.05773         8.40534
     2014.71047        15.39706         8.59160
     2014.71321        14.26348         8.28014
     2014.71595         9.02302         8.41128
     2014.71869        17.43226         8.32704
     2014.72142        16.38430         8.33631
     2014.72416        20.44760         8.72965
     2014.72690        17.54891         8.54607
     2014.72964        18.55545         8.30504
     2014.73238        11.28387         8.56134
     2014.73511         6.41848         8.45785
     2014.73785        16.91316         8.52768
     2014.74059         1.99493         8.43298
     2014.74333         8.88332         8.56083
     2014.74606         9.21860         8.59045
     2014.74880         7.06317         8.53083
     2014.75154         8.55945         8.50735
     2014.75428         8.97285         8.44124
     2014.75702         9.65201         9.06157
     2014.75975        12.28229         8.43323
     2014.76249        12.66352         8.38789
     2014.76523        13.40161         8.34919
     2014.76797        11.15997         8.53024
     2014.77070        11.43747        11.44363
     2014.78987        19.86012        10.54991
     2014.79261        19.68248         8.33871
     2014.79535        19.22466         8.37848
     2014.79808        13.16911         8.92047
     2014.80082        15.30895         8.50312
     2014.80356         7.44423         8.47896
     2014.80630        12.91551         8.51889
     2014.80903        16.52844         8.54273
     2014.81177        14.75202         8.46761
     2014.81451        23.42400         8.42529
     2014.81725        12.84750         8.47419
     2014.81999        11.99649         8.57753
     2014.82272        12.64851         8.51376
     2014.82546         3.25420         8.77359
     2014.82820        21.32016         8.26788
     2014.83094        18.21326         8.83556
     2014.83368        10.61941         8.41036
     2014.83641         2.51086         8.60960
     2014.83915        12.42819         8.45752
     2014.84189        12.75573         8.53664
     2014.84463        13.46175         8.43841
     2014.84736        18.70442         9.20101
     2014.85010        11.72772         8.62301
     2014.85284         1.17373         8.42240
     2014.85558        11.81008         8.77319
     2014.85832        12.52355         8.44893
     2014.86105         2.55054         8.47538
     2014.86379         7.68196         8.36994
     2014.86653        21.03859        12.68101
     2014.86927         8.32279         8.48982
     2014.87201         4.04065         8.48825
     2014.87474         4.67259         8.67965
     2014.87748        14.00985         8.89540
     2014.88022         9.02450         9.00247
     2014.88296        21.39996         8.70174
     2014.88569         8.38869         8.90249
     2014.88843        15.23060        10.58715
     2014.89117        14.91516         8.86475
     2014.89391         5.95708         9.28368
     2014.89665         5.64974        10.90661
     2014.89938         5.44592         8.86843
     2014.90212         3.23632         8.84472
     2014.90486        19.23327         9.08560
     2014.90760        16.22584         8.68828
     2014.91034        11.73916         8.46953
     2014.91307         7.01383         8.62572
     2014.91581         9.62773         8.63366
     2014.91855         6.85878         8.80322
     2014.92129         9.25311         8.61900
     2014.92402        11.43243         8.64366
     2014.92676         9.96434         8.45242
     2014.92950         8.38665         8.65403
     2014.93224         4.60349        10.12992
     2014.93771         4.69333         8.56589
     2014.94045         4.84059         8.61775
     2014.94319         8.29164         8.78303
     2014.94593         6.31353         8.42835
     2014.94867        -1.06038         8.31236
     2014.95140         2.19580         8.37625
     2014.95414         8.97762         8.40139
     2014.95688         9.82858         8.74768
     2014.95962         8.17823         8.57899
     2014.96235         7.31382         8.26452
     2014.96509        -1.19507         8.49447
     2014.96783         1.53627         8.28555
     2014.97057        -3.27975         8.28991
     2014.97331        -3.47032         8.32054
     2014.97604        -5.42515         8.41318
     2014.97878         0.33937         8.58344
     2014.98152         2.96849         8.69683
     2014.98426        -0.49490         8.55691
     2014.98700         2.71502         8.30556
     2014.98973         7.58732         8.51042
     2014.99247        -1.46618         8.34423
     2014.99521        -0.53969         8.57163
     2014.99795        10.01492         8.57193
     2015.00068         9.71460         8.28009
     2015.00342         6.37836         8.28832
     2015.00616         2.05504         8.27276
     2015.00890        -0.21792         8.58458
     2015.01164        -0.02474         8.59767
     2015.01437         0.46068         8.63013
     2015.01711         0.16703         8.47749
     2015.01985         2.65278         8.44632
     2015.02259        11.72155         8.89956
     2015.02533        10.46658         8.66307
     2015.02806         8.79793         8.61255
     2015.03080         5.48049         8.71855
     2015.03354         7.66421         9.11020
     2015.03628         4.04550         8.57960
     2015.03901        10.04561         8.66610
     2015.04175        11.46934         8.46820
     2015.04449         7.83300         8.76255
     2015.04723        17.62552         8.58434
     2015.04997         8.95728         8.55677
     2015.05270         1.78186         8.42411
     2015.05544         0.08124         8.44383
     2015.05818         6.44128         8.33492
     2015.06092         8.28952         8.32087
     2015.06366        10.50407         8.57494
     2015.06639        10.56567         8.45140
     2015.06913        11.32725         8.41358
     2015.07187         8.78308         8.35355
     2015.07461        10.14042         8.26297
     2015.07734         0.14147         8.36137
     2015.08008         1.42042         8.41275
     2015.08282         6.72676         8.38173
     2015.08556         7.94776         8.58652
     2015.08830        12.50851         8.80850
     2015.09103        14.84342         8.31879
     2015.09377        11.31997         8.38888
     2015.09651        14.50307         8.90701
     2015.09925        16.85199         9.18214
     2015.10198        22.81954         9.20637
     2015.10472        10.52861         8.36880
     2015.10746        12.33690         8.39003
     2015.11020         4.09673         8.78191
     2015.11294         0.30234         9.41936
     2015.11567        13.85397         8.44497
     2015.11841         8.06559         8.31648
     2015.12115         8.81134         8.82848
     2015.12389        -0.92818         8.35073
     2015.12663         3.57944         8.38035
     2015.12936         8.91458         8.35690
     2015.13210         4.05664         8.33628
     2015.13484         8.56209         8.50081
     2015.13758         7.12436         8.39992
     2015.14031         9.55842         8.48372
     2015.14305         2.99500         8.33194
     2015.14579        11.80347         8.69598
     2015.14853         6.82905         8.55202
     2015.15127         4.70458         8.37741
     2015.15400         4.61939         8.40734
     2015.15674        19.34089         8.56006
     2015.15948        10.91246         8.37225
     2015.16222        13.03932         8.39306
     2015.16496         8.70900         8.37861
     2015.16769         5.29967         8.40376
     2015.17043        10.58371         8.43090
     2015.17317        11.65797         8.98693
     2015.17591        11.04533         8.83876
     2015.17864         6.37759         8.32489
     2015.18138         7.33398         8.39456
     2015.18412         6.77742         8.36669
     2015.18686         2.92038         8.41943
     2015.18960        13.82044         8.73281
     2015.19233         4.28204         8.69625
     2015.19507         5.92439         8.31786
     2015.19781        12.05856         8.35631
     2015.20055        15.59818         9.29819
     2015.20329        13.22447         8.38459
     2015.20602        -0.71175         8.44759
     2015.20876         9.75997         8.32806
     2015.21150        -4.48493         8.36382
     2015.21424         8.60001         8.59434
     2015.21697         7.91091         8.50907
     2015.21971        -1.23868         8.36076
     2015.22245         5.82214         8.32009
     2015.22519         3.27609        18.90609
     2015.23066         6.74693         8.36255
     2015.23340         7.05827         8.51510
     2015.23614        10.86441         8.76611
     2015.23888         4.74486         8.84796
     2015.24162        10.16434         8.86983
     2015.24435        12.51705         8.89405
     2015.24709         7.49307         8.55548
     2015.24983         7.56780         8.34463
     2015.25257         9.72319         8.37267
     2015.25530        -1.12953        11.41258
     2015.25804        11.12316         8.37113
     2015.26078         8.91019         8.31467
     2015.26352        10.06254         8.38146
     2015.26626         9.14833         8.53174
     2015.26899         8.02938         8.29471
     2015.27173         9.50630         9.80080
     2015.28268         7.87970         8.52124
     2015.28542         4.69272         8.76760
     2015.28816         1.34830         8.69612
     2015.29090         4.60219         8.76158
     2015.29363         6.02940         8.53866
     2015.29637         4.18890         8.34021
     2015.29911         4.28033         8.29051
     2015.30185         3.74939         8.47843
     2015.30459         0.47058         8.52142
     2015.30732         1.71001         8.31921
     2015.31006         6.63067         8.36366
     2015.31280         2.21908         8.30302
     2015.31554         1.89235         8.35268
     2015.31828         3.96078         8.31817
     2015.32101         5.41974         8.41806
     2015.32375         5.53808         8.33110
     2015.32649         1.61190         8.56531
     2015.32923         1.07193         8.55554
     2015.33196         6.49762         8.51846
     2015.33470         4.44237         8.19764
     2015.33744         7.60470         8.17335
     2015.34018         6.00147         8.29952
     2015.34292         3.53854         8.37933
     2015.34565        -1.17500         8.42506
     2015.34839         1.13804         8.12445
     2015.35113         5.11488         8.13246
     2015.35387        13.09758         8.13526
     2015.35661         5.02982         8.37310
     2015.35934         3.58437         9.04587
     2015.36208         4.44509         8.28975
     2015.36482         4.52364         8.15211
     2015.36756         8.22249         8.13201
     2015.37029         4.19605         8.12223
     2015.37303        -0.05874         8.13836
     2015.37577        -2.00053         8.31365
     2015.37851         2.64198         8.45716
     2015.38125         1.71102         8.10211
     2015.38398         6.83994         8.24772
     2015.38672         6.31438         8.11951
     2015.38946         4.09547         9.29836
     2015.39767         2.19019        12.08884
     2015.40041         2.42488         8.40108
     2015.40315         3.40747         8.40726
     2015.40589        -0.60415         8.68986
     2015.41684         4.26175         8.36235
     2015.41958         1.07109         8.23708
     2015.42231         0.43522         8.32916
     2015.42505        -1.93457         8.42169
     2015.42779         3.30899         8.16574
     2015.43053         3.84349         8.14464
     2015.43326         0.64507         8.16110
     2015.43600        -1.69362         8.18559
     2015.43874         6.66151         8.22338
     2015.44148        -1.53869         8.47526
     2015.44422         6.95161         8.32178
     2015.44695         3.93987         8.40320
     2015.44969         3.23197         8.16377
     2015.45243        -1.60838         8.60204
     2015.45517         6.43118         8.25213
     2015.45791         2.76878         8.50292
     2015.46064        10.69488         8.54461
     2015.46338        12.14911         8.60751
     2015.46612         9.90084         8.38250
     2015.46886         9.45735         8.21547
     2015.47159         9.87835         8.49653
     2015.47433         5.48678         8.44960
     2015.47707         8.93981         8.41827
     2015.47981        10.60262         8.58282
     2015.48255         0.23411         8.59174
     2015.48528         4.44508         8.23193
     2015.48802         7.09098         8.15126
     2015.49076         3.78823         8.26999
     2015.49350        11.39295         8.32597
     2015.49624         9.42576         8.74544
     2015.49897         3.01334         8.40602
     2015.50171         6.86022         8.39898
     2015.50445        11.96555         8.15689
     2015.50719         2.44709         8.55518
     2015.50992        12.53226         8.11466
     2015.51266        11.76687         8.22739
     2015.51540        13.83586         8.22636
     2015.51814        15.76209         8.56766
     2015.52088        16.11506         8.20509
     2015.52361        14.68475         8.51199
     2015.52635        10.10641         8.23241
     2015.52909         4.86737         8.21033
     2015.53183        10.54271         8.20665
     2015.53457        10.75040         8.19018
     2015.53730        20.69531         8.39366
     2015.54004        12.76295         8.54311
     2015.54278        12.63967         8.49589
     2015.54552        14.42573         8.43970
     2015.54825        10.41785        12.72173
     2015.55099        17.33281         8.43230
     2015.55373        15.75330         8.48400
     2015.55647        15.45552         8.36843
     2015.55921         8.14481         8.39287
     2015.56194        21.87747         8.30354
     2015.56468        11.55506         8.51011
     2015.56742        13.75867         8.59981
     2015.57016        11.24475         9.19768
     2015.57290         7.15506         8.86959
     2015.57563        12.52498         8.78033
     2015.57837        15.53157         8.52724
     2015.58111         9.90404         8.73795
     2015.58385        17.67781         8.82310
     2015.58658        20.66319         8.72308
     2015.58932        17.41498         8.68383
     2015.59206        15.20067         8.55574
     2015.59480        13.35184         8.92265
     2015.59754        17.30640         8.58697
     2015.60027        22.03741         8.80058
     2015.60301        14.83571         9.43630
     2015.60575         3.00800         8.94901
     2015.60849        11.51804         8.53071
     2015.61123        14.11512         8.56978
     2015.61396        17.77941         8.81476
     2015.61670        15.47138         8.38360
     2015.61944        12.21263         8.40693
     2015.62218        10.38380         8.34066
     2015.62491        17.89348         8.45235
     2015.62765        12.71332         8.43189
     2015.63039        21.20257         8.58009
     2015.63313        16.95579         8.74122
     2015.63587         9.97194         8.72723
     2015.63860        11.99723         8.38080
     2015.64134        11.70296         8.40381
     2015.64408        13.62835         8.49802
     2015.64682        10.12838         8.63829
     2015.64956        11.73529         8.54985
     2015.65229        15.53693         8.38611
     2015.65503        16.15992         8.34943
     2015.65777        21.31516         8.53436
     2015.66051        16.96438         8.50166
     2015.66324        13.36865         8.33953
     2015.66598         9.08598         8.66918
     2015.66872        10.13804         8.50427
     2015.67146         7.27421         8.83618
     2015.67420         9.53858         8.52604
     2015.67693        11.57875         8.39426
     2015.67967        11.51895         8.48885
     2015.68241        10.78349         8.43451
     2015.68515         7.07643         8.39583
     2015.68789        13.44625         8.43546
     2015.69062        17.73184         9.01722
     2015.69336         9.71518         8.65452
     2015.69610        15.12622         8.39825
     2015.69884        14.97650         8.58267
     2015.70157        13.74080         8.62866
     2015.70431         9.52698         8.36769
     2015.70705        11.06354         8.43500
     2015.70979        16.50628         8.37896
     2015.71253         7.15504         8.63448
     2015.71526        10.57467         8.42536
     2015.71800        14.80230         8.33684
     2015.72074        10.05721         8.64617
     2015.72348         7.49502         8.55472
     2015.72621         5.73713         8.36757
     2015.72895         5.12622         8.38694
     2015.73169         8.14336         8.36906
     2015.73443         9.82725         8.55987
     2015.73717         7.18486         8.64594
     2015.73990        12.42946         8.69576
     2015.74264        14.40238         8.62603
     2015.74538        13.00522         8.94906
     2015.74812         3.76965         8.73424
     2015.75086         6.13935         8.63130
     2015.75359         6.49549         8.37196
     2015.75633         9.29424         8.61314
     2015.75907        14.01611         8.59189
     2015.76181        13.21879         8.84343
     2015.76454        10.48740         9.12730
     2015.76728         9.96682         8.71303
     2015.77002        14.60598         8.59907
     2015.77276        13.90083         8.48876
     2015.77550        22.30196         4.85117
     2015.77823        14.35863         4.82387
     2015.78097        16.72559         4.83071
     2015.78371         7.98435         4.84506
     2015.78645         9.78728         4.94866
     2015.78919         7.02952         4.88496
     2015.79740        18.67768         7.28900
     2015.80014        11.65745         4.96248
     2015.80287         2.55465         4.80979
     2015.80561        12.41347         4.83805
     2015.80835         5.77271         4.84409
     2015.81109        17.05811         4.82388
     2015.81383        14.16991         5.03583
     2015.81656        10.70223         4.88786
     2015.81930        -0.44113         4.89586
     2015.82204         2.79995         4.93008
     2015.82478         9.57940         4.90572
     2015.82752        14.32530         4.94520
     2015.83025        20.30264         4.84666
     2015.83299        12.12741         4.83983
     2015.83573        12.05808         4.90182
     2015.83847        -2.59188         4.94143
     2015.84120        -0.90609         5.02212
     2015.84394         3.90775         7.13852
     2015.84668         8.12293         4.92627
     2015.84942        12.23410         4.99031
     2015.85216         3.91116         4.94421
     2015.85489         4.53587         4.93436
     2015.85763        -3.58005         4.83518
     2015.86037         1.88639         5.05188
     2015.86311         4.21945         4.92492
     2015.86585        18.07505         4.93150
     2015.86858        11.64160         4.95045
     2015.87132         4.71925         4.87603
     2015.87406         2.46065         5.04367
     2015.87680         0.87914         4.89186
     2015.87953        -1.91876         5.80006
     2015.88227        15.35074         5.23175
     2015.88501         0.41129         6.27985
     2015.88775         6.94389         4.86785
     2015.89049         6.94118         4.92988
     2015.89322         2.35841         4.87991
     2015.89596        11.95572         4.92237
     2015.89870        -1.16363         4.92627
     2015.90144         2.56157         4.90382
     2015.90418        -3.00859         4.90541
     2015.90691         8.26947         4.88332
     2015.90965         5.93473         5.11705
     2015.91239        10.42749         4.94107
     2015.91513         3.71177         4.91270
     2015.91786         9.54258         6.09148
     2015.92060         3.32135         4.86155
     2015.92334         4.00819         4.82631
     2015.92608         9.23543         5.11792
     2015.92882         3.34463         5.08018
     2015.93155         0.76152         5.30530
     2015.93429        11.38385         5.07672
     2015.93703         2.93779         5.16638
     2015.93977         6.77161         5.10590
     2015.94251         8.18411         5.84754
     2015.94524         2.09555         5.13360
     2015.94798         7.94894         5.12250
     2015.95072         3.90906         4.87759
     2015.95346        -4.25144         5.05409
     2015.95619         6.64280         4.99402
     2015.95893         1.60877         5.09798
     2015.96167         2.90564         5.00219
     2015.96441         9.07848         4.86909
     2015.96715         7.26203         4.84926
     2015.96988         4.08847         4.82014
     2015.97262        12.54131         4.91177
     2015.97536        -0.87581         5.02410
     2015.97810         6.17148         4.89190
     2015.98084        -2.03831         4.87480
     2015.98357        -4.62731         5.21361
     2015.98631         0.52903         5.31648
     2015.98905        -0.69823         4.89683
     2015.99179        -3.30643         4.87802
     2015.99452         5.26548         4.84346
     2015.99726         5.62143         4.82386
     2016.00000        -3.66244         4.82979
     2016.00274        -3.12174         5.05302
     2016.00548        -5.56860         4.90339
     2016.00821         2.13525         4.94289
     2016.01095         7.49803         4.84387
     2016.01369        -0.12324         4.84337
     2016.01643        -2.64515         5.07886
     2016.01916        -3.38251         5.11928
     2016.02190        -0.75385         4.94058
     2016.02464        -0.76836         4.83114
     2016.03012         6.63417         4.85462
     2016.03285         2.67576         4.88984
     2016.03559         4.75892         4.83538
     2016.03833         0.27677         4.94458
     2016.04107         5.18018         4.83426
     2016.04381         3.68498         5.71154
     2016.04654         7.99256         4.82041
     2016.04928         1.28979         4.81403
     2016.05202         5.74790         4.83867
     2016.05476        -1.21416         4.84990
     2016.05749         3.45595         4.91646
     2016.06023         1.78985         4.87617
     2016.06297        -0.01445         4.79325
     2016.06571        -1.92042         4.79153
     2016.06845         6.65007         4.87151
     2016.07118         4.07414         5.26008
     2016.07392         2.39779         5.28274
     2016.07666        -0.70350         4.94025
     2016.07940         9.30498         4.82346
     2016.08214        15.37978         4.92019
     2016.08487         3.05622         4.82050
     2016.08761         2.89441         4.79784
     2016.09035         3.75280         5.55456
     2016.09309        -4.71937         5.06742
     2016.09582         1.99745         4.80637
     2016.09856        -3.43687         4.84558
     2016.10130        -3.26406         4.81873
     2016.10404        -8.04258         4.76576
     2016.10678         5.97516         4.82151
     2016.10951         5.58290         4.78630
     2016.11225         6.77992         5.31172
     2016.11499         1.04701         4.88215
     2016.11773         4.00013         4.84065
     2016.12047        -1.18120         5.28027
     2016.12320         2.00199         4.85802
     2016.12594         6.82811         4.82700
     2016.12868        13.27829         4.84509
     2016.13142        12.44993         4.81072
     2016.13415         7.21956         4.80381
     2016.13689         4.29907         5.27155
     2016.13963         2.92268         9.45439
     2016.14237         2.30570         4.94286
     2016.14511        -8.13228         4.83736
     2016.14784         1.21272         4.78662
     2016.15058        -2.65876         4.76927
     2016.15332        16.58689         5.10318
     2016.15606        14.85799         9.34402
     2016.15880         8.79682         4.84339
     2016.16153         7.38572         4.87546
     2016.16427         8.04673         4.87841
     2016.16701        10.51769         4.78847
     2016.16975         9.63445         4.90262
     2016.17248         5.41055         4.86952
     2016.17522         4.48072         4.89586
     2016.17796        17.30294         4.85385
     2016.18070        12.18347         4.84865
     2016.18344         9.46175         5.78026
     2016.18617        11.70870         6.98236
     2016.18891         8.55048         4.92557
     2016.19165         6.25128         5.08512
     2016.19439        15.01070         4.82141
     2016.19713        16.52295         4.75287
     2016.19986         5.73615         4.97582
     2016.20260         6.54090         5.01270
     2016.20534        -2.18519         5.00483
     2016.20808         3.51570         5.05684
     2016.21081        10.82122         5.00044
     2016.21355         1.02300         4.76076
     2016.21629         8.25986         5.43581
     2016.21903         9.17199         4.81548
     2016.22177         7.21493         4.82115
     2016.22450         5.79069         4.88885
     2016.22724         3.89514         4.98945
     2016.22998        15.43730         4.70489
     2016.23272         2.95670         4.71701
     2016.23546         7.36115         4.73468
     2016.23819         9.54663         4.67664
     2016.24093         6.61602         4.74602
     2016.24367         5.94365         4.77921
     2016.24641         7.95428         4.74128
     2016.24914        10.04245         4.75043
     2016.25188        -3.60590         7.02701
     2016.25462         3.12858         5.96631
     2016.25736         1.41418         4.80391
     2016.26010        -0.60919         4.78669
     2016.26283         5.24319         4.71574
     2016.26557         3.87830         4.73546
     2016.26831         7.03022         4.66932
     2016.27105         7.26059         4.75914
     2016.27379         9.45730         4.77993
     2016.27652         5.99200         4.72277
     2016.27926         0.05717         4.69405
     2016.28200         5.43734         5.33864
     2016.28474         1.25650         4.67950
     2016.28747         3.31909         5.24006
     2016.29021         1.41110         4.72096
     2016.29295         0.34245         4.70314
     2016.29569         3.42194         4.81964
     2016.29843         5.47269         4.82344
     2016.30116        -0.31373         9.40605
     2016.30390         1.73357         4.72576
     2016.30664         1.26364         4.76128
     2016.30938        -6.62599         4.76199
     2016.31211         3.63763         4.71227
     2016.31485         1.39563         4.70151
     2016.31759         0.32846         4.72030
     2016.32033        -0.60945         4.72675
     2016.32307         1.08794         4.72871
     2016.32580         5.98566         4.76103
     2016.32854         1.20097         4.84967
     2016.33128        -0.89261         4.66767
     2016.33402         0.98236         4.79604
     2016.33676         9.93164         4.74974
     2016.33949        11.76256         4.82719
     2016.34223         8.60284         4.83474
     2016.34497         4.29350         4.79093
     2016.34771         8.41088         4.68601
     2016.35044        10.54168         4.94149
     2016.35318         6.07738         4.67583
     2016.35592         2.54131         4.69400
     2016.35866         3.77224         4.74053
     2016.36140         2.87380         4.68083
     2016.36413         3.47750         4.84408
     2016.36687         8.03259         5.76518
     2016.37509        10.67768         4.75537
     2016.37782         1.19524         4.71039
     2016.38330         9.21398         4.80903
     2016.38604         5.04763         4.72662
     2016.38877         6.55136         4.73777
     2016.39151        10.06656         4.83872
     2016.39425         2.59247         5.42300
     2016.39699         2.50061         4.67698
     2016.39973         6.17699         4.89102
     2016.40246         7.11040         4.78740
     2016.40520         3.24955         4.70771
     2016.40794         4.87824         4.69167
     2016.41068         0.72680         4.76708
     2016.41342         6.35944         4.81813
     2016.41615         2.73018         4.73305
     2016.41889         6.69801         4.68566
     2016.42163         3.29123         5.12744
     2016.42437         1.19353         4.77435
     2016.42710        14.09979         4.67284
     2016.42984         5.46347         4.96230
     2016.43258         8.48349         4.70140
     2016.43532        12.15184         4.76278
     2016.43806        14.43109         4.69720
     2016.44079        15.93432         4.70282
     2016.44353        16.04367         4.69943
     2016.44627         1.36717         4.71799
     2016.44901        11.63196         5.48645
     2016.45175         7.05065         4.69788
     2016.45448         5.41110         4.70230
     2016.45722         7.13808         4.66880
     2016.45996         6.01786         4.71943
     2016.46270         4.70545         5.15291
     2016.46543        14.45491         5.73909
     2016.46817         6.35794         4.72375
     2016.47091        14.75966         4.67158
     2016.47365         8.84758         4.67779
     2016.47639         2.10901         4.80331
     2016.47912        10.25638         4.80881
     2016.48186        12.52044         4.98451
     2016.48460         2.33542         4.70358
     2016.48734        12.44725         4.71322
     2016.49008        14.57594         4.82118
     2016.49281        12.20708         4.71048
     2016.49555        13.99316         4.98011
     2016.49829         1.81230         4.71933
     2016.50103         7.49934         4.69625
     2016.50376         7.47487         4.79680
     2016.50650        10.59633         4.80291
     2016.50924        15.56933         4.69755
     2016.51198         5.97426         4.80930
     2016.51472         7.07084         4.87026
     2016.51745        10.00415         4.88214
     2016.52019        12.89948         4.70268
     2016.52293        14.17315         4.70985
     2016.52567         6.77633         4.65680
     2016.52841         5.62138         4.73499
     2016.53114         0.46442         4.72129
     2016.53388        -1.61034         4.66120
     2016.53662         9.45816         4.72951
     2016.53936        10.54163         4.63438
     2016.54209        15.41604         4.69950
     2016.54483         8.60195         5.64786
     2016.54757         1.39173         4.78263
     2016.55031         9.08820         4.80954
     2016.55305        13.24301         4.68231
     2016.55578        14.92999         4.78629
     2016.55852        12.00730         4.71560
     2016.56126         6.00149         4.71698
     2016.56400        15.22314         4.70018
     2016.56674        15.20862         4.78027
     2016.56947        18.31185         7.58836
     2016.57221         5.76743         4.69700
     2016.57495         7.53742         4.99268
     2016.57769        17.45154         4.73211
     2016.58042        13.65159         4.81840
     2016.58316        12.23191         4.68182
     2016.58590         7.97086         4.69699
     2016.58864        10.45955         4.69061
     2016.59138         9.19099         4.70906
     2016.59411         6.34868         5.14413
     2016.59685        15.49658         6.78759
     2016.59959         7.01475         4.89799
     2016.60233        13.11145         4.93758
     2016.60507        11.66641         4.72902
     2016.60780         7.43306         6.35782
     2016.61054         7.07270         5.27283
     2016.61328         8.32310         4.97263
     2016.61602        13.61159         4.97041
     2016.61875        14.72097         5.23051
     2016.62149        10.85724         4.87900
     2016.62423        13.10632         5.22291
     2016.62697         9.53522         4.85320
     2016.62971        10.46334         4.88623
     2016.63244        12.67071         5.09092
     2016.63518        21.02728         4.77668
     2016.63792        15.97007         4.86811
     2016.64066        15.70980         4.79012
     2016.64339         9.48672         4.75046
     2016.64613         4.76155         5.15950
     2016.64887         5.17545         4.95195
     2016.65161        12.69071         5.61983
     2016.65435        11.59405         4.85613
     2016.65708         0.24208         4.77803
     2016.65982         6.91796         4.81152
     2016.66256         8.27718         4.84337
     2016.66530        10.48742         5.03585
     2016.66804         9.64136         4.83845
     2016.67077        18.24021         4.84226
     2016.67351         7.59495         5.02196
     2016.67625        11.33230         4.84714
     2016.67899        16.17089         4.89084
     2016.68172        15.22249         4.77580
     2016.68446         3.71962         5.06422
     2016.68720        11.73715         4.82780
     2016.68994        14.32692         4.86354
     2016.69268        11.93252         4.66213
     2016.69541        18.61457         4.66620
     2016.69815        14.04085         4.71340
     2016.70089        11.16045         4.69792
     2016.70363        15.15108         4.65509
     2016.70637        12.72473         5.36757
     2016.70910        17.52029         7.56476
     2016.71184        15.59301         7.70674
     2016.71458        24.17647         7.59213
     2016.71732        13.86220         7.88726
     2016.72005         7.40669         8.35227
     2016.72279        14.88283         7.26898
     2016.72553         6.54569         7.04282
     2016.73101         8.07696         7.28519
     2016.73374        10.17234         7.45783
     2016.73648        -1.37645         7.10122
     2016.73922        16.72894         7.66535
     2016.74196         7.03636         7.58134
     2016.74470         4.33826         7.29979
     2016.74743         6.09394         7.24273
     2016.75017        23.42298         7.58036
     2016.75291        22.41888         7.26903
     2016.75565        23.13429         7.52649
     2016.75838        21.24979         7.52385
     2016.76112         7.80624         6.92653
     2016.76386        10.37866         7.42315
     2016.76660         7.83452         7.45165
     2016.76934        12.48402         7.28311
     2016.77207         9.52575         7.24806
     2016.77481        15.11374         7.62647
     2016.77755         4.31497         8.40542
     2016.80493         0.69229        15.93840
     2016.80767         7.33851         8.39212
     2016.82136       -16.57457        14.87781
     2016.82409         4.61735         7.77212
     2016.82683         9.88361         7.78543
     2016.82957        -1.79343         7.63480
     2016.83231        10.85137         7.40909
     2016.83504         3.15677         7.57730
     2016.83778         5.40047         8.69371
     2016.84052         0.40139         8.08820
     2016.84326       -15.16374         7.71825
     2016.84600        12.04347         7.63276
     2016.84873         3.55188         7.57478
     2016.85147        -4.60740         7.66123
     2016.85421        -4.35349         7.90494
     2016.85695        19.72744         8.07330
     2016.85969        -2.70098         7.86375
     2016.86242        -1.08833         7.60564
     2016.86516         3.49150         7.74026
     2016.86790         8.51410         7.63966
     2016.87064         1.24243         7.64234
     2016.87337        14.32650         7.44425
     2016.87611        10.76336         7.87773
     2016.87885         3.21238         7.62597
     2016.88159        -1.80705         7.63341
     2016.88433         6.21816         7.28363
     2016.88706         4.35236         7.60606
     2016.88980        13.59218         7.97760
     2016.89254        -4.82033        10.64832
     2016.89528        -1.70569         7.79056
     2016.89802         3.50070         7.47945
     2016.90075        -5.18485         7.52114
     2016.90349        10.26815         8.25343
     2016.90623         9.41521         7.41582
     2016.90897        15.20342         7.60935
     2016.91170         4.45717         7.71920
     2016.91444        -6.71639         7.89916
     2016.91718        -5.01563         8.38432
     2016.91992        -0.52152         8.54436
     2016.92266        -0.27728         7.67723
     2016.92539         3.59099         7.39564
     2016.92813        -0.41124         7.52354
     2016.93087         5.39821         7.64842
     2016.93361         3.65968         7.40970
     2016.93634         6.34919         7.40114
     2016.93908         2.02947         7.90658
     2016.95551         6.04355        11.46769
     2016.95825         8.47628         7.25397
     2016.97467        34.71233        39.81590
     2016.99384         3.16293         8.15674
     2016.99658        -0.03148         7.29528
     2016.99932         7.53505         7.34802
     2017.00479         1.34188         7.29060
     2017.00753         9.60093         7.44661
     2017.01300        13.48404        10.83194
     2017.01574        10.03717         9.35192
     2017.01848         7.50286         9.71434
     2017.02122         3.32821        14.49865
     2017.02396       -11.83985        12.70372
     2017.02669        -3.99654        11.26467
     2017.02943         4.35387         8.88546
     2017.03217       -16.00683        10.06810
     2017.03491         9.95675        10.40202
     2017.03765         0.12259         8.42267
     2017.04038         9.97221         9.47177
     2017.04312        -0.45350        11.63086
     2017.04586        21.51380        11.07585
     2017.04860         4.93867        11.77592
     2017.05133         9.90302         8.79460
     2017.05407        13.00328         8.55603
     2017.05681        12.30669         8.94127
     2017.05955         2.19394         9.17118
     2017.06229        -1.15660         9.01318
     2017.06502       -12.49729        12.73275
     2017.06776         0.76424        12.92345
     2017.07050        16.27197        11.03353
     2017.07324        12.38169        13.70736
     2017.07598        -4.41865        10.17263
     2017.07871         2.70562        13.19044
     2017.08145         0.99877        11.14939
     2017.08419        -2.90528        10.31492
     2017.08693        11.71517        11.17078
     2017.08966         3.49347        11.18985
     2017.09240        -3.50094        13.03554
     2017.09514         5.14551        10.75362
     2017.09788        -6.96729        10.74236
     2017.10062        -7.19138        10.20973
     2017.10335        -8.79457        12.48930
     2017.10609        -2.99569         8.86745
     2017.10883        13.95464         8.57028
     2017.11157         1.94866        11.46309
     2017.11431        -6.26819         8.75609
     2017.11704         5.30844        10.64087
     2017.11978        -5.15247         8.48525
     2017.12252         0.50945         8.80103
     2017.12526         2.43481         9.76438
     2017.12799        -0.69551         7.60994
     2017.13073         5.54648        10.89959
     2017.13347         3.35610        12.75028
     2017.13621         2.48374         8.27632
     2017.13895        -8.02023         7.98866
     2017.14168        -8.30179         7.63138
     2017.14442        -5.98938         7.79390
     2017.14716       -10.78481         9.05619
     2017.14990       -10.96515         8.34172
     2017.15264         9.22969         8.11084
     2017.15537        18.74163         8.92432
     2017.15811         2.80539         8.95381
     2017.16085         4.61022        10.64697
     2017.16359         5.88510        10.67241
     2017.16632       -11.42630        12.40348
     2017.16906         2.70077        10.28131
     2017.17180         5.34996         8.88532
     2017.17454         9.37700        10.53325
     2017.17728       -12.97666        10.69947
     2017.18001         0.63691         8.89370
     2017.18275        -6.59440         9.94574
     2017.18549        -5.94512         8.50095
     2017.18823        -0.47714        10.60791
     2017.19097         6.91015         8.50862
     2017.19370         9.88240         8.66105
     2017.19644        -2.45590        12.66156
     2017.19918         6.92190        12.15648
     2017.20192        -3.31048        11.25036
     2017.20465       -12.47384        10.71742
     2017.20739        12.37184        19.09995
     2017.21013         7.31470         8.52683
     2017.21287        -7.97832        16.08340
     2017.21561         7.59767         8.68812
     2017.21834         5.93071         8.15349
     2017.22108        15.20771        11.43046
     2017.22382        -7.04608        11.47517
     2017.22656        -1.14498         8.02272
     2017.22930        -3.29954         8.73801
     2017.23203        -3.76626         8.12454
     2017.23477        -0.03645         9.09778
     2017.23751        -2.79070         9.88905
     2017.24025        -7.42166        13.05802
     2017.24298        -3.22046         8.99977
     2017.24572        -4.72603        11.97295
     2017.24846        -0.20328        15.69792
     2017.25120        -3.13896         9.15392
     2017.25394       -10.74987        10.92551
     2017.25667        -9.14605        10.69149
     2017.25941       -12.88171         9.52981
     2017.26215        24.49137        11.36842
     2017.26489         9.17946        12.68494
     2017.26762        -2.00048        10.23152
     2017.27036        18.89252        10.41017
     2017.27310       -19.09111         7.57553
     2017.27584       -11.99617         7.50096
     2017.27858       -13.93907         7.79471
     2017.28131       -12.99618         7.67688
     2017.28405        -8.04427         7.70264
     2017.28679       -12.71524         7.31644
     2017.28953        -5.61066         7.73944
     2017.29227        -4.31371         7.67746
     2017.29500        -4.38977         7.89778
     2017.29774        -2.37595         7.47264
     2017.30048       -22.97830         7.64270
     2017.30322        -7.27431         7.66669
     2017.30595        -9.02347         7.69821
     2017.30869        -5.62811         7.57757
     2017.31143        -3.07217         8.36719
     2017.31417       -14.29321         7.74052
     2017.31691         0.66862         7.69200
     2017.31964       -15.11189         7.65044
     2017.32238        -9.43000         7.39450
     2017.32512       -16.61255         7.45952
     2017.32786        -6.84038         7.57483
     2017.33060       -15.28009         7.19513
     2017.33333        -5.84627         7.06308
     2017.33607        -8.72356         7.11759
     2017.33881        -4.26734         8.46656
     2017.34155        -7.71559         7.19334
     2017.34428       -11.97063         7.39164
     2017.34702       -10.98430         7.18233
     2017.34976       -11.03549         7.13610
     2017.35250        -9.60630         7.11873
     2017.35524        -9.33032         7.32976
     2017.35797       -10.59376         6.94898
     2017.36071        -5.77318         7.20803
     2017.36345        -7.16636         6.99462
     2017.36619       -12.39592         7.02252
     2017.36893       -16.72048         6.94214
     2017.37166        -9.48360         7.33257
     2017.37440       -15.77765         7.04723
     2017.37714       -15.82944         8.29187
     2017.37988        -4.52503         7.21229
     2017.38261       -12.88468         7.31383
     2017.38535        -7.50671         7.14174
     2017.38809        -9.73302         7.34967
     2017.39083         2.48853         7.11326
     2017.39357         5.18359         7.04952
     2017.39630        -5.65457         6.90022
     2017.39904       -11.22840         7.02524
     2017.40178        -1.03088         6.94528
     2017.40452        -4.23352         6.72617
     2017.40726         2.77839         6.95712
     2017.40999        -1.02402         6.90287
     2017.41273         4.21865         6.90316
     2017.41547       -11.14299         7.04081
     2017.41821        -1.04311         6.81744
     2017.42094         3.04244         6.96695
     2017.42368        -3.78076         7.05465
     2017.42642        -8.29737         7.00904
     2017.42916        -4.13838         6.98714
     2017.43190        -3.56479         7.10139
     2017.43463         5.53017         7.01781
     2017.43737         2.81481         6.82678
     2017.44011         3.58377         6.88724
     2017.44285         0.58833         6.93303
     2017.44559        -1.92287         6.91619
     2017.44832        -3.05546         6.92110
     2017.45106         2.28976         7.23009
     2017.45380         2.69583         7.06280
     2017.45654        -0.83631         7.58985
     2017.45927         2.45572         7.09112
