# ================= DQRFIT RESULTS ================
# INPUT FILE: series/IWAC.rad
# OUTPUT: CLEANED_DATA
# FILTER FUNCTION: f(t)
# f(t)=+line(t)+annual(t)
# line(t)=+P 1+P 2*t
# annual(t)=+P 3*sin(2*pi*t+P 4)
# heav(t)=(t<0?0:1)
# TOTAL OBSERVATIONS MTOT= 1397
# INITIAL TIME INTERVAL= 2011.9124 - 2007.9316 =  3.9808
# TOTAL OBSERVATIONS AFTER PREFILTER M= 1396
# TIME-SPAN= 2011.9124 - 2007.9316 =  3.9808
# OBSERVATIONS: USED M=  1396 REJECTED MTOT-M=     1 %USED=   99.9284
# N=  4 PARAMETERS
# MAXSIG= 175.00000
# MAXRES=  39.41056
# SCALE FACTOR FOR LENGTHS: SCL=  10.00000
# SCALE FACTOR FOR SIGMAS: SCLSIG=   1.00000
# CHI^2=   2049.811 DOF=  1392 CHI^2/DOF=   1.47257
# RMS=      9.127 SDEV=      9.123 MEAN=   -0.35396
#  P #       PARAMETER +-    SIGMA %error PARAMETER NAME
# P 1 =      6078.94441 +-  416.210   6.85 YZERO                              
# P 2 =        -3.03379 +-    0.207   6.83 SLOPE                              
# P 3 =         3.50275 +-    0.288   8.23 ANNUAL AMPLITUDE                   
# P 4 =        -2.36885 +-    0.090   3.79 ANNUAL PHASE                       
#       T             B_CLEANED       RE-SCALED_SIG_OBS
     2007.93155       -16.46292         4.98502
     2007.93429        -7.92939         4.76612
     2007.93703       -16.05313         4.14663
     2007.93977       -19.41088         3.96991
     2007.94251        -9.44217         4.27267
     2007.94524       -19.06937         3.92311
     2007.94798       -26.94430         3.95791
     2007.95072       -17.67029         3.88005
     2007.95346       -15.38262         3.93013
     2007.95619        -9.83548         4.12308
     2007.95893       -13.95600         3.94852
     2007.96167       -17.86207         3.85461
     2007.96441       -11.08403         4.17283
     2007.96715       -17.40410         3.91275
     2007.96988       -27.83748         4.07452
     2007.97262       -16.65479         3.98562
     2007.97536       -15.79809         3.94507
     2007.97810       -13.92934         3.82896
     2007.98084       -18.68222         3.89734
     2007.98357        -7.95836         3.87802
     2007.98631       -11.72140         4.08084
     2007.98905       -13.68686         4.06243
     2007.99179       -13.50081         3.96520
     2007.99452       -14.40733         3.95757
     2007.99726       -20.51431         3.87229
     2008.00000       -14.24275         4.78040
     2008.00274        -4.92412         3.90162
     2008.00548        -3.26210         3.82511
     2008.00821        -8.27839         3.79778
     2008.01095        -6.84484         3.82594
     2008.01369       -16.07727         3.82096
     2008.01643       -13.72674         3.81759
     2008.01916       -15.81968         3.89947
     2008.02190       -17.77775         3.84833
     2008.02464       -13.44971         3.76195
     2008.02738       -17.67725         3.80240
     2008.03012       -19.23278         3.89568
     2008.03285       -20.55700         3.82740
     2008.03559       -17.45749         3.80386
     2008.03833       -13.10309         3.77699
     2008.04107       -21.08968         3.87893
     2008.04381       -20.00428         3.91145
     2008.04654       -14.37987         3.88812
     2008.04928       -17.32877         3.83448
     2008.05202       -20.65333         3.79853
     2008.05476       -13.87358         3.82048
     2008.05749       -15.91005         3.82532
     2008.06023       -11.48553         3.81546
     2008.06297        -8.94283         3.77644
     2008.09309       -19.97831         7.50713
     2008.09582       -20.56229         3.93085
     2008.09856       -19.67733         3.91110
     2008.10130       -20.40228         3.88937
     2008.10404       -23.53718         3.84153
     2008.10678       -23.83650         3.79640
     2008.10951       -22.17874         3.80083
     2008.11225       -26.79261         3.79396
     2008.12868        -8.50916         4.87233
     2008.13142        -8.67636         3.78787
     2008.13415        -8.79832         3.81908
     2008.13689       -12.51918         3.81124
     2008.13963       -15.71542         3.87602
     2008.14237        -6.40338         3.80970
     2008.14511       -14.34371         3.76253
     2008.14784       -13.52811         3.82652
     2008.15058       -20.87591         3.80863
     2008.15332       -24.19905         3.77148
     2008.15606       -18.26466         6.03320
     2008.15880       -19.07496         3.72887
     2008.16153       -17.80137         3.75397
     2008.16427       -15.33456         3.80673
     2008.16701       -18.09804         3.78838
     2008.16975       -15.66204         4.35848
     2008.17248       -13.94638         3.75416
     2008.17522       -15.88192         3.83994
     2008.17796       -18.17737         3.77421
     2008.18070       -20.41731         3.78481
     2008.18344       -16.19587         3.75433
     2008.18617       -15.03365         3.83857
     2008.18891        -5.36118         3.74098
     2008.19165        -9.56690         3.76803
     2008.19439       -15.27610         3.79371
     2008.19713       -10.91604         4.58175
     2008.19986       -19.82466         3.81659
     2008.20260       -18.09854         3.75269
     2008.20534       -15.78262         3.76567
     2008.20808       -16.92232         3.90325
     2008.21355       -14.29275         4.11697
     2008.21629       -11.37909         3.83663
     2008.21903       -12.00900         3.84554
     2008.22177       -20.10827         3.82226
     2008.22450       -10.07933         3.81989
     2008.22724       -19.42451         3.79761
     2008.22998       -13.57050         3.94523
     2008.23272       -10.56949         3.96572
     2008.23546       -12.26435         5.52361
     2008.23819       -15.84947         3.98481
     2008.24093        -9.93315         3.92936
     2008.24367       -25.91379         3.90191
     2008.24641       -12.54966         4.70144
     2008.24914       -13.32012         3.99711
     2008.25188       -11.41827         4.00392
     2008.25462       -17.55244         4.08744
     2008.25736       -13.14151         3.91811
     2008.26010       -17.01884         3.91713
     2008.26283       -19.63269         3.94421
     2008.26557       -13.09343         3.92127
     2008.26831       -17.81455         3.83186
     2008.27105       -19.96271         3.89532
     2008.27379       -13.21988         3.83352
     2008.27652       -17.11050         4.00561
     2008.27926       -10.86539         3.94571
     2008.28200       -11.40487         3.84723
     2008.28474        -4.39050         3.83204
     2008.28747        -4.90699         3.89309
     2008.29021        -5.87584         3.94544
     2008.29295       -12.78191         3.93161
     2008.29569        -8.49035         3.94595
     2008.29843       -16.12488         3.83514
     2008.30116       -13.36005         3.95083
     2008.30390       -20.90359         3.96369
     2008.30664       -14.33935         4.09298
     2008.30938       -10.75498         4.02707
     2008.31211       -19.33189         4.49226
     2008.31485       -13.95163         3.87174
     2008.31759       -15.53792         4.18598
     2008.32033       -13.61326         4.29942
     2008.32307       -13.42081         3.89391
     2008.32580       -12.02324         4.56827
     2008.32854       -13.26924         3.84928
     2008.33128       -18.21617         3.91943
     2008.33402       -14.65653         3.88956
     2008.33676       -12.19047         3.82813
     2008.33949        -9.96538         3.98715
     2008.34223        -9.80376         3.81806
     2008.34497       -15.59860         4.02233
     2008.34771        -8.44211         3.85317
     2008.35044        -8.02839         3.88929
     2008.35318       -10.10914         3.88108
     2008.35592       -10.38895         3.83832
     2008.35866       -17.87787         3.85780
     2008.36140       -13.59622         4.09778
     2008.36413       -13.29609         3.85248
     2008.36687       -26.61089         3.85646
     2008.36961       -12.45299         3.79299
     2008.37235       -11.57443         3.81324
     2008.37509       -11.23055         5.36911
     2008.37782        -3.47655         3.79194
     2008.38056        -8.64851         3.82067
     2008.38330       -14.90161         3.79392
     2008.38604       -12.46935         3.79824
     2008.38877       -13.80176         3.92884
     2008.39151       -14.30074         3.94466
     2008.39425       -11.47801         3.79551
     2008.39699       -12.23866         4.15168
     2008.39973        -4.34954         3.89452
     2008.40246       -10.51244         4.23592
     2008.40520       -11.20923         3.90083
     2008.40794       -11.73983         3.91465
     2008.41068       -13.92688         3.80970
     2008.41342       -13.64383         3.82488
     2008.41615       -10.73731         3.81390
     2008.41889       -11.59687         3.80453
     2008.42163       -12.54720         3.96835
     2008.42437        -9.81805         5.96315
     2008.42710       -13.79120         3.83087
     2008.42984        -9.81587         3.89405
     2008.43258       -10.81391         3.94815
     2008.43532        -8.75916         3.89993
     2008.43806       -19.59882         3.93547
     2008.44079       -15.79414         3.84965
     2008.44353       -16.46553         3.91220
     2008.44627       -14.59194         3.87840
     2008.44901       -15.57476         3.86704
     2008.45175       -19.24442         3.92248
     2008.45448       -14.90446         3.93926
     2008.45722       -14.03479         3.80682
     2008.45996       -15.64116         3.84593
     2008.46270       -14.68858         3.92553
     2008.46543       -15.21246         3.92202
     2008.46817       -19.26334         3.81027
     2008.47091       -18.26004         3.81266
     2008.47365       -11.18328         4.05727
     2008.47639       -16.00949         4.08390
     2008.47912       -14.17969         3.83259
     2008.48186       -10.97256         3.82237
     2008.48460        -7.59101         3.91997
     2008.48734       -15.09257         3.83138
     2008.49008       -13.75787         3.81208
     2008.49281       -14.53175         3.80760
     2008.49555       -19.74341         3.81276
     2008.49829       -13.57855         3.89192
     2008.50103        -9.86957         3.92129
     2008.50376       -10.57338         3.82968
     2008.50650       -10.66456         3.81746
     2008.50924       -10.11793         3.81906
     2008.51198       -13.40001         3.82805
     2008.51472       -14.21300         3.83576
     2008.51745        -9.89006         3.83778
     2008.52019        -7.58678         3.82034
     2008.52293        -4.90072         3.91522
     2008.52567       -11.01936         4.06035
     2008.52841       -11.17515         3.81587
     2008.53114        -7.01556         3.97034
     2008.53388        -2.67824         3.95729
     2008.53662        -7.99251         3.96407
     2008.53936       -11.84664         4.03501
     2008.54209       -11.50348         4.00393
     2008.54483        -6.81641         3.97741
     2008.54757        -3.94367         3.92209
     2008.55031        -7.79010         3.83600
     2008.55305        -0.24228         3.82253
     2008.55578        -7.29245         3.87656
     2008.55852       -10.02749         3.83844
     2008.56126       -13.69544         3.84194
     2008.56400        -5.85234         3.82030
     2008.56674        -8.37266         3.83774
     2008.56947        -3.91763         3.79515
     2008.57221        -5.69104         3.98129
     2008.57495        -4.65792         3.95124
     2008.57769        -4.71918         4.03672
     2008.58042        -9.28711         3.84285
     2008.58316        -4.18330         3.79903
     2008.58590        -3.97965         3.80198
     2008.58864        -6.98715         3.92541
     2008.59138        -3.41147         4.46431
     2008.59411        -3.06504         3.79029
     2008.59685        -2.94337         3.87171
     2008.59959        -2.37326         3.97797
     2008.60233        -2.12306         3.99456
     2008.60507       -10.55489         3.92324
     2008.60780       -10.76130         3.86402
     2008.61054        -9.04077         4.12514
     2008.61328       -22.49295         7.67217
     2008.61602        -8.72026         7.57071
     2008.61875       -17.95378         8.80026
     2008.62149        -0.79583         9.50039
     2008.62423       -10.19327         8.17861
     2008.62697       -24.95016        10.86854
     2008.62971       -15.45407         9.75703
     2008.63244        10.14431         8.89508
     2008.63518       -40.37305         8.80100
     2008.63792       -13.29099         9.20597
     2008.64066       -20.14698         8.14279
     2008.64339       -18.80781         8.37663
     2008.64613       -18.49788         7.38789
     2008.64887       -16.49512         7.73507
     2008.65161       -17.07232         9.40059
     2008.65435       -12.05737         8.54515
     2008.65708       -13.90944         7.97149
     2008.65982       -14.06245         7.63018
     2008.66256        -6.47973         8.50399
     2008.66530        -7.24512         8.59285
     2008.66804       -23.17617         9.48056
     2008.67077       -22.04194         8.10252
     2008.67351       -13.26939         9.42153
     2008.67625       -19.30118         8.68099
     2008.67899       -10.77403         9.43664
     2008.68172        -6.77086         8.67573
     2008.68446       -13.89737         8.05597
     2008.68720       -14.87807         9.05375
     2008.68994        -4.21941         9.99889
     2008.69268        -6.57325         8.17228
     2008.69541       -10.22072         9.44313
     2008.69815        14.00143         8.47765
     2008.70089        -7.47846         9.11202
     2008.70363       -14.13292         7.48420
     2008.70637        -6.08965         8.34980
     2008.70910        -1.74560         8.27591
     2008.71184       -21.22915         8.55878
     2008.71458       -17.83647         8.07536
     2008.71732        -2.03913         8.83193
     2008.72005       -25.93578         9.42847
     2008.72279       -22.90704         8.71505
     2008.72553       -17.61648         8.61060
     2008.72827       -14.79838         8.51354
     2008.73101         2.83254        10.55082
     2008.73374        -2.42646         9.45864
     2008.73648       -18.91663         8.19131
     2008.73922         7.47668         8.49504
     2008.74196       -21.20996         8.22715
     2008.74470       -18.20535         8.80651
     2008.74743       -11.57361         7.98616
     2008.75017        -3.66470         8.49891
     2008.75291       -13.93759         9.08492
     2008.75565        -9.28950         9.33651
     2008.75838       -23.86973        10.47034
     2008.76112       -12.43657         8.21838
     2008.76386       -20.00161         8.98086
     2008.76660       -28.02103        10.24216
     2008.76934       -10.02707         9.86040
     2008.77207       -31.91240         8.70038
     2008.77481       -15.00220         9.79923
     2008.77755       -26.83357         8.90252
     2008.78029       -10.89072         8.84830
     2008.78303       -14.36833         8.65176
     2008.78576        -9.27563         8.57897
     2008.78850       -24.93467         8.11058
     2008.79124       -21.16392         7.67229
     2008.79398       -24.41637         8.20703
     2008.79671       -24.31746         8.81983
     2008.79945       -19.92470         8.35640
     2008.80219       -12.04496         7.76509
     2008.80493       -11.77921         8.47149
     2008.80767       -11.36355         7.53335
     2008.81040        -7.29232         8.62987
     2008.81314       -15.01544        10.38379
     2008.81588        -7.91721         8.13257
     2008.81862       -10.44680         8.87426
     2008.82136        -4.25309         8.41647
     2008.82409       -16.41946         9.25219
     2008.82683        -9.50206         8.11347
     2008.82957       -20.87990         8.29195
     2008.83231        -0.28059         8.09134
     2008.83504       -14.00080         8.18642
     2008.83778       -10.31144         8.57463
     2008.84052       -17.15244         7.52849
     2008.84326       -11.60191         8.30459
     2008.84600        -6.36649         8.09397
     2008.84873       -24.06038         8.84949
     2008.85147       -23.78425         8.54337
     2008.85421       -25.62163         8.80583
     2008.85695        -5.63981         8.41839
     2008.85969        -4.94851         9.00026
     2008.86242       -19.40820         8.01228
     2008.86516       -23.93345         8.11950
     2008.86790       -24.17192         7.56691
     2008.87064        -8.36953         7.31180
     2008.87337       -16.09925         7.72014
     2008.87611       -18.57088         8.25866
     2008.87885       -34.45659        10.20416
     2008.88159       -20.85067         8.07763
     2008.88433       -30.14318         8.23242
     2008.88706       -14.84066         9.94136
     2008.88980       -14.63819        10.40176
     2008.89254       -25.05853        10.85336
     2008.89528       -27.55394         9.95433
     2008.89802        -8.59023         9.44828
     2008.90075       -13.23924         9.58328
     2008.90349       -28.07186         8.40816
     2008.90897       -18.27724         9.11491
     2008.91170       -17.01775         9.47862
     2008.91444       -13.93252         8.72566
     2008.91718        -3.28532         8.11829
     2008.91992       -15.15778         9.05759
     2008.92266        -5.08532         9.21458
     2008.92539       -19.17442         9.24688
     2008.92813       -19.00217         9.29635
     2008.93087       -13.88951        11.68151
     2008.93361        -7.20245         8.48509
     2008.93634       -21.62866         8.86462
     2008.93908       -28.99776         9.99988
     2008.94182       -14.79291         8.74641
     2008.94456       -31.62355         9.07851
     2008.94730       -20.72821         8.40835
     2008.95003       -16.11146         9.80324
     2008.95277       -14.71968         8.43276
     2008.95551       -18.00432         8.08772
     2008.95825        -5.51587         7.93803
     2008.96099        -2.42262         8.43264
     2008.96372       -39.01283        24.23162
     2008.96646       -29.11451         7.45221
     2008.96920       -24.03438         7.42888
     2008.97194       -30.18202         7.73883
     2008.97467       -38.23454         7.97696
     2008.97741       -21.22543         8.74078
     2008.98015       -22.90276         7.93925
     2008.98289       -26.72980         7.99490
     2008.98563       -19.33612         8.96520
     2008.98836       -29.58159        20.45796
     2008.99110       -25.01013         7.99959
     2008.99384       -17.64435         8.63598
     2008.99658       -17.82291         7.87598
     2008.99932         2.18079         7.52449
     2009.00205       -11.50951         8.61893
     2009.00479       -24.02094         7.96299
     2009.00753       -17.46568         8.06796
     2009.01027       -20.71757         7.37648
     2009.01300       -10.66069         7.93775
     2009.01574       -12.11150         7.40078
     2009.01848       -19.53145         8.13453
     2009.02122       -23.57786         8.17015
     2009.02396       -26.60451         7.30701
     2009.02669       -20.22759         7.74134
     2009.02943       -24.91009         7.93401
     2009.03217       -12.80967         7.50865
     2009.03491       -26.01551         7.50357
     2009.03765       -27.37704         7.70058
     2009.04038       -32.77520         7.75687
     2009.04312       -29.89340         7.76433
     2009.04586       -39.10240         8.00687
     2009.04860       -22.60355         8.09336
     2009.05133       -16.45049         7.76929
     2009.05407       -19.65763         8.23495
     2009.05681       -20.60907         8.16254
     2009.05955       -23.88132         8.37837
     2009.06229       -44.64060         7.56620
     2009.06502       -27.29573         7.93860
     2009.06776       -25.62985         7.95982
     2009.07050       -22.11454         8.26819
     2009.07324       -20.89363         7.47796
     2009.07598       -21.32872         8.19343
     2009.07871       -19.34572         8.11350
     2009.08145       -27.99746        11.38763
     2009.08693       -27.32884         7.57010
     2009.08966       -31.39823         7.63678
     2009.09240       -30.47289         8.05909
     2009.09514       -33.06253         7.66151
     2009.09788       -32.50025         7.40498
     2009.10062       -20.60230         7.21064
     2009.10335       -21.48314         7.70483
     2009.10609       -19.53399         7.56972
     2009.10883       -23.13659         8.02709
     2009.11157       -30.43533         7.55096
     2009.11431       -30.55893         7.39061
     2009.11704       -17.54828         9.03576
     2009.11978       -22.41038         8.11586
     2009.12252       -22.17972         8.12087
     2009.12526       -25.88485         7.85466
     2009.12799       -29.57863         8.12621
     2009.13073       -25.96751         8.45418
     2009.13347       -24.71744         7.86009
     2009.13621       -26.71618         8.69031
     2009.13895       -28.84286         8.75399
     2009.14168       -24.19491         8.09122
     2009.14442       -26.43169         7.92368
     2009.14716       -19.18323         8.27798
     2009.14990       -15.78682         8.36530
     2009.15264       -31.63683         8.27887
     2009.15537       -20.61600         9.43793
     2009.15811       -19.90665         9.62730
     2009.16632       -22.17026         9.20230
     2009.16906       -13.83897        17.01934
     2009.17180       -20.38110         7.92882
     2009.17454       -14.67774         7.79428
     2009.17728       -15.56765         9.70431
     2009.18001       -22.93191         8.00655
     2009.18275       -16.60755         7.98656
     2009.18549       -18.23152         7.42148
     2009.18823       -20.74725         7.78195
     2009.19097       -26.13893         7.85899
     2009.19370       -15.31806         7.65738
     2009.19644       -22.06894         8.13418
     2009.19918        -6.74359         9.69146
     2009.20465       -12.59212         7.55445
     2009.20739        -8.65445         7.81335
     2009.21013       -18.95228         7.60812
     2009.21287       -23.21193         7.94423
     2009.21561       -28.57915         8.76646
     2009.21834       -12.93426         7.72078
     2009.22108       -47.71062        24.16063
     2009.22382       -19.54144         7.90332
     2009.22656       -29.32507         8.43825
     2009.22930       -24.89573         8.47791
     2009.23203       -20.11743         9.50734
     2009.23477       -13.98511        30.52619
     2009.23751       -18.49365         9.51697
     2009.24298       -11.67893        13.39259
     2009.24572       -21.56112         7.60187
     2009.24846       -37.97375         7.88441
     2009.25120       -38.69129         7.63973
     2009.25394       -21.33875         7.64478
     2009.25667       -16.37378         7.42305
     2009.25941       -22.67315         7.21409
     2009.26215       -27.64562         7.67578
     2009.26489       -25.67656         7.44328
     2009.26762       -20.11041         8.02276
     2009.27036       -23.48204         8.47902
     2009.27310       -18.34303         8.08990
     2009.27584       -26.74551         7.31205
     2009.27858       -24.98883         8.19064
     2009.28131       -27.68259         8.25211
     2009.28405       -20.97133         8.20686
     2009.28679       -22.29506         8.38348
     2009.28953       -32.43689         7.98655
     2009.29227       -18.91894         7.77849
     2009.29500       -35.60731        11.42293
     2009.29774       -29.31821         8.66770
     2009.30048       -28.92689         8.04076
     2009.30322       -21.13332         7.79870
     2009.30595       -13.86037         7.37032
     2009.30869       -20.09004         7.51147
     2009.31143       -24.03063         7.52120
     2009.31417       -32.85870         7.31299
     2009.31691       -30.15795        11.05494
     2009.31964       -23.11317         7.69501
     2009.32238       -27.75741         8.55985
     2009.32512       -23.04475         8.28269
     2009.32786       -27.26281         9.22504
     2009.33060       -30.50421         7.91481
     2009.33333       -16.77701         8.28918
     2009.33607       -25.59418         8.68522
     2009.33881       -18.69082         7.65212
     2009.34155       -22.71235         7.66265
     2009.34428       -33.83538         7.45011
     2009.34702       -28.73561         7.10696
     2009.34976       -27.75097         7.32318
     2009.35250       -22.94935         6.80343
     2009.35524       -25.74567         7.84296
     2009.35797       -30.82769         8.51968
     2009.36071       -17.96993         7.85602
     2009.36345       -32.15376         7.43461
     2009.36619       -26.47795         7.52724
     2009.36893       -24.54950         7.89289
     2009.37166       -18.60113         8.05154
     2009.37440       -16.12414         8.19823
     2009.37714       -34.52111         8.64291
     2009.37988       -46.90804         9.69229
     2009.38261       -16.28523         7.16919
     2009.38535       -20.43271         8.19348
     2009.38809       -37.00494         7.72688
     2009.39083       -34.61754         7.11405
     2009.39357       -34.04476         7.74718
     2009.39630       -40.66413        10.04132
     2009.39904       -28.67882         8.35257
     2009.40178       -25.48909         8.40753
     2009.40452       -15.82148         8.31755
     2009.40726       -23.52223         8.01649
     2009.40999       -24.29067         8.81911
     2009.41273       -32.97890         8.25862
     2009.41547       -26.48115         8.63750
     2009.41821       -24.90909         8.65241
     2009.42094       -32.28042         8.52949
     2009.42368       -22.66276         8.56468
     2009.42642       -32.35091         7.30868
     2009.42916       -46.48901         9.17081
     2009.43190       -24.57528         8.55950
     2009.43463       -29.92037         8.11178
     2009.43737       -23.09060         7.77014
     2009.44011       -29.76020         8.07745
     2009.44285       -24.98992         7.32588
     2009.44559       -16.24144         6.95651
     2009.44832       -18.08905         7.20110
     2009.45106       -22.38974         7.65060
     2009.45380       -40.89171         8.15577
     2009.45654       -29.26883         7.25238
     2009.45927       -25.72675         7.30338
     2009.46201       -27.13008         7.79738
     2009.46475       -28.83229         7.50359
     2009.46749       -27.83636         9.11016
     2009.47023       -33.51323         8.65596
     2009.47296       -20.77160         8.29991
     2009.47570       -24.49743         8.16530
     2009.47844        -7.19746         7.99715
     2009.48118       -16.25043         7.30814
     2009.48392       -16.33310         7.72147
     2009.48665       -19.40205         8.73215
     2009.48939       -36.16667        14.58133
     2009.49213       -22.08073         8.25788
     2009.49487       -27.51690         8.17842
     2009.49760       -28.24443         8.01718
     2009.50034       -16.92720         7.74125
     2009.50308       -24.63820         8.88404
     2009.50582       -27.78978         8.45894
     2009.50856       -19.47037         7.81466
     2009.51129       -27.60617         7.20109
     2009.51403       -28.37522         8.17216
     2009.51677       -27.65610         7.57291
     2009.51951       -27.21868         7.75220
     2009.52225       -16.22858         7.19081
     2009.52498       -14.00939         8.23468
     2009.52772       -29.45285         8.18058
     2009.53046       -16.52021        10.00706
     2009.53320       -28.22627        12.74848
     2009.53593       -22.17817         8.97617
     2009.53867        -9.36483        11.59965
     2009.54141       -24.40677         7.87019
     2009.54415       -22.35975         7.91910
     2009.54689        -7.37980        12.57126
     2009.54962       -13.23519         8.31026
     2009.55236       -22.87883         8.27092
     2009.55510       -18.84915         8.73087
     2009.55784       -23.21251         7.96344
     2009.56057       -21.82699         7.66279
     2009.56331       -12.77121         8.70503
     2009.56605       -15.14630         8.31148
     2009.56879       -23.89903         7.61310
     2009.57153       -18.56890         8.57703
     2009.57426       -26.41228         8.84232
     2009.57700       -20.53806         8.42691
     2009.57974        -9.43153         7.66832
     2009.58248       -20.29277         8.02354
     2009.58522       -20.64159         8.07982
     2009.58795       -30.98434         8.93446
     2009.59069       -19.75624         8.20967
     2009.59343        -8.44766         7.50941
     2009.59617       -11.12638        29.15831
     2009.59890       -16.52504        11.87238
     2009.60164       -32.42112         8.52577
     2009.60438       -27.50659         8.04647
     2009.60712       -25.02651         8.15588
     2009.60986       -15.01479         8.89520
     2009.61259       -23.67255         7.88978
     2009.61533       -29.70339         8.13122
     2009.61807       -28.26062         7.65964
     2009.62081       -15.93295         8.46120
     2009.62355       -20.51832         7.89210
     2009.62628        -5.29511         8.02756
     2009.62902         0.56496         8.58496
     2009.63176       -18.41284         8.13222
     2009.63450       -13.13171         9.74418
     2009.63723       -15.47070         8.44183
     2009.63997       -26.09500         8.70292
     2009.64271       -12.37495         9.07697
     2009.64545       -29.18453         8.85275
     2009.64819       -24.56982         8.81927
     2009.65092       -18.83755         9.24564
     2009.65366       -18.39797         8.12903
     2009.65640       -35.97893         8.17943
     2009.65914       -27.50097         8.70170
     2009.66188       -30.40928         7.45200
     2009.66461       -25.47861         7.01725
     2009.66735       -16.27771         7.36181
     2009.67009       -16.29373         9.12626
     2009.67283         4.20372         9.13404
     2009.67556       -27.37071        10.51074
     2009.67830       -14.19521         8.40844
     2009.68104       -32.18355         9.85523
     2009.68378       -12.27081         9.43199
     2009.68652       -19.29151         8.45853
     2009.68925       -10.51078        10.32794
     2009.69199       -17.92317         8.29588
     2009.69473       -16.97342         9.24183
     2009.69747       -22.61896         9.11354
     2009.70021       -17.37468        14.95639
     2009.70294       -17.17831         7.74235
     2009.70568       -10.64080         8.43944
     2009.70842        -9.76781         8.98949
     2009.71116       -25.63398         8.19815
     2009.71389       -17.27636         7.19214
     2009.71663       -18.78660         7.36756
     2009.71937       -14.20453         7.98075
     2009.72211       -28.05919         8.05289
     2009.72485       -11.03957         8.10614
     2009.72758       -27.84284         8.16669
     2009.73032       -33.85757         8.22158
     2009.73306       -12.32446         7.96861
     2009.73580         6.97483         7.76678
     2009.73854       -16.88719         8.30201
     2009.74127       -11.81308         8.04949
     2009.74401       -21.07421         9.09099
     2009.74675        -6.32221         8.94731
     2009.74949       -12.90142         8.95482
     2009.75222       -24.76082         9.78113
     2009.75496       -18.40281         7.90669
     2009.75770       -31.79749        10.14032
     2009.76044       -21.07119         8.22799
     2009.76318       -21.29821         7.71779
     2009.76591       -17.34612         9.05468
     2009.76865       -24.73791         8.57252
     2009.77139       -14.31115         7.74917
     2009.77413       -22.07559         7.63645
     2009.77687       -22.33118         7.80775
     2009.77960        -5.52532        10.21155
     2009.78234        -7.44757         8.06492
     2009.78508       -12.38946         7.94395
     2009.78782       -10.05384         7.17288
     2009.79055       -21.13549         7.64659
     2009.79329       -22.46235         6.86010
     2009.79603       -15.30315         7.02107
     2009.79877       -24.70883         7.05989
     2009.80151        -2.43875         7.12476
     2009.80424        -7.46533         7.04320
     2009.80698       -11.65119         7.19975
     2009.80972       -33.16691         7.12489
     2009.81246       -15.86249         7.72857
     2009.81520        -0.67426         7.90889
     2009.81793       -24.75707         7.90264
     2009.82067       -11.88459         6.42062
     2009.82341       -25.88322         7.53049
     2009.82615       -11.07254         7.16879
     2009.82888       -13.87003        10.21613
     2009.83162        -4.97052         7.68254
     2009.83436       -23.24137         8.53529
     2009.83710       -45.22926         7.97563
     2009.83984       -31.44231         8.41368
     2009.84257       -10.66513         8.04436
     2009.84531       -37.57213         8.69839
     2009.84805        -9.15431         7.96512
     2009.85079        -9.09961         7.84353
     2009.85352        -3.31355         8.09243
     2009.85626       -11.51977         7.33476
     2009.85900        -7.26768         7.61200
     2009.86174       -22.58009         7.40139
     2009.86448       -20.06070         9.20254
     2009.86721       -11.94242         8.24110
     2009.86995       -20.36434         7.64874
     2009.87269       -10.23203         7.92624
     2009.87543        -9.65141         7.67660
     2009.87817       -18.28947         7.96671
     2009.88090        -5.56428         7.59288
     2009.88364       -11.92531        10.50493
     2009.88638       -18.52432         7.93396
     2009.88912       -16.10079         7.52053
     2009.89185       -39.05818        10.04816
     2009.89459       -25.91386         8.19190
     2009.89733       -32.79832         7.63726
     2009.90007       -25.70728         9.12374
     2009.90281       -31.08338         7.56143
     2009.90554       -19.22105         7.69048
     2009.90828       -19.06036         7.85050
     2009.91102       -19.25241         8.21996
     2009.91376       -32.78394         7.98897
     2009.91650       -43.26127         7.95418
     2009.91923       -26.79873         7.51799
     2009.92197       -18.37485         8.07122
     2009.92471       -25.29078         8.37801
     2009.92745       -22.64231         7.88901
     2009.93018       -21.66048         7.73081
     2009.93292       -19.11554         7.92670
     2009.93566       -23.47043         7.56008
     2009.93840       -12.89176        11.23932
     2009.94114       -16.74417         8.53657
     2009.94387       -16.73162         7.67299
     2009.94661       -14.82145         7.94538
     2009.94935       -24.41651         7.86793
     2009.95209       -29.07155         8.00517
     2009.95483       -13.64245         8.23374
     2009.95756       -30.97740         8.68078
     2009.96030       -30.55661         8.95719
     2009.96304       -20.71246         8.61111
     2009.96578       -20.87827         8.30605
     2009.96851       -15.76998         8.34939
     2009.97125        -9.65753         8.62429
     2009.97399       -22.06974         8.19135
     2009.97673       -43.20598         8.67743
     2009.97947       -26.17950         8.50371
     2009.98220       -25.12689         7.55019
     2009.98494       -20.48350         8.35890
     2009.98768       -20.97264         7.94907
     2009.99042       -18.33858         7.73659
     2009.99316       -24.84192         8.04496
     2009.99589       -22.57576         8.63988
     2009.99863       -18.74917         8.44176
     2010.00137        -5.12280         9.92765
     2010.00411       -24.28818         7.99639
     2010.00684       -23.59261         8.20413
     2010.00958       -18.65439         8.06303
     2010.01232        -6.62173         8.24534
     2010.01506       -18.74322         8.37404
     2010.01780       -20.50105         8.82710
     2010.02053       -27.11653         9.13602
     2010.02327       -26.39532         8.49867
     2010.02601       -27.77312         8.50521
     2010.02875       -29.14732         9.01993
     2010.03149       -24.25115         8.64424
     2010.03422        -7.71369         7.79862
     2010.03696       -17.13408         8.69890
     2010.03970        -8.19975         9.05085
     2010.04244       -27.54748         8.62365
     2010.04517       -18.29163         8.27928
     2010.04791       -29.11670         8.15671
     2010.05065        -9.28171         8.48037
     2010.05339       -21.20339         8.03127
     2010.05613       -21.21848         8.40489
     2010.05886       -36.86456         8.21251
     2010.06160       -24.92624         8.13884
     2010.06434       -25.43189         8.47145
     2010.06708       -30.89248         8.77860
     2010.06982       -45.67048        10.58873
     2010.09172         4.24229        29.83003
     2010.09446       -33.08879         8.35341
     2010.09719       -41.65027         9.23274
     2010.09993       -31.36678         8.08944
     2010.10267       -32.41184         9.12922
     2010.10541       -36.84960         9.80483
     2010.10815       -34.46864         9.05325
     2010.11088       -29.73534         8.92716
     2010.11362       -13.37127         9.36632
     2010.11636       -13.53543         8.47756
     2010.11910       -28.43878         9.13746
     2010.12183       -43.42350         8.25087
     2010.12457       -29.93653         8.43121
     2010.12731       -32.69264         9.05672
     2010.13005       -31.89743         8.79166
     2010.13279       -19.50573         8.22424
     2010.13552       -28.15363         8.18654
     2010.13826       -23.16612         9.26358
     2010.14100       -32.37203         9.17397
     2010.14374       -24.64840         8.21467
     2010.14648       -25.58035         8.84447
     2010.14921       -13.83762         8.15161
     2010.15195       -22.43970         9.07235
     2010.15469       -16.81005         8.47686
     2010.15743       -18.01422         8.95725
     2010.16016        -3.27181         9.12408
     2010.16290        -9.98105         9.53176
     2010.16564       -13.36480         9.96269
     2010.16838       -19.91358         9.09875
     2010.17112       -27.56713         8.34730
     2010.17385       -18.41654         9.00379
     2010.17659       -18.01440         8.98683
     2010.17933       -16.52254         8.78714
     2010.18207        -7.39157         8.65967
     2010.18480       -21.52259         8.81427
     2010.18754       -21.84169         8.97513
     2010.19028        -6.70073         9.43268
     2010.19302       -17.87725        10.87445
     2010.19849       -42.40779        35.10564
     2010.20123        -7.37007        10.01067
     2010.20397        -9.43382         8.82546
     2010.20671       -11.70078         8.48967
     2010.20945       -25.15650         8.71657
     2010.21218       -16.64568         9.14014
     2010.21492       -15.24925         8.36018
     2010.21766       -22.73225         8.75580
     2010.22040       -21.70277         8.86241
     2010.22313       -20.48259         8.36043
     2010.22587       -19.08219        10.25223
     2010.22861         2.12823         9.22489
     2010.23135       -21.32097         8.63021
     2010.23409       -31.10676        10.24378
     2010.23682        -6.91396         8.13131
     2010.23956       -14.61360         7.61242
     2010.24230       -18.73372         7.43667
     2010.24504       -12.86658         7.85328
     2010.24778       -15.73147         8.63750
     2010.25051       -20.78344         7.12600
     2010.25325        -6.54269         8.72334
     2010.25599       -11.87442         7.81954
     2010.25873        -5.22970         7.78135
     2010.26146       -18.53341         8.52466
     2010.26420       -14.50813         7.93331
     2010.26694        -9.10984         8.21287
     2010.26968        -4.27772         8.54587
     2010.27242        -4.11705         8.50936
     2010.27515        -7.83151         8.29142
     2010.27789       -14.90121         8.25677
     2010.28063       -20.92961         8.24955
     2010.28337       -23.15173         7.86470
     2010.28611       -19.62550         8.79247
     2010.28884       -11.14162         8.43579
     2010.29158       -20.19009         8.54177
     2010.29432       -17.58624         8.20897
     2010.29706         2.24339         7.93037
     2010.29979       -17.51107        12.05511
     2010.30253        -9.17806         8.36448
     2010.30527       -11.62536         8.31721
     2010.30801       -10.43613         8.05849
     2010.31075       -30.38269         8.32401
     2010.31348       -16.64777         8.12747
     2010.31622        -4.42903         8.28830
     2010.31896        -8.49809         7.75444
     2010.32170       -19.10572         8.71029
     2010.32444        -3.68959         8.19637
     2010.32717       -21.72358         9.53384
     2010.32991       -29.98356        13.36130
     2010.33265       -23.27627        15.14615
     2010.33539       -11.21251        21.00387
     2010.33812       -15.73394        14.64933
     2010.34086       -17.71300        13.74110
     2010.34360       -19.68235        13.64294
     2010.34634       -27.84996        13.14974
     2010.34908       -16.01559        12.52843
     2010.35181       -20.18191        12.27600
     2010.35455       -34.86436        15.37255
     2010.35729       -25.08888        13.37469
     2010.36003       -35.79607        14.11676
     2010.36277       -20.68081        13.09630
     2010.36550       -21.93779        13.46825
     2010.36824       -19.20871        13.96016
     2010.37098       -12.22093        14.69570
     2010.37372       -39.33526        14.19292
     2010.37645       -35.17369        13.28950
     2010.37919        -2.98475        13.22000
     2010.38193       -31.93957        14.18140
     2010.38467       -21.91022        13.90186
     2010.38741       -20.01349        12.86300
     2010.39014       -24.11037        12.93856
     2010.39288       -22.61690        12.21543
     2010.39562       -24.55978        13.22323
     2010.39836       -33.28726        12.39494
     2010.40110       -37.03574        13.50074
     2010.40383       -27.22641        12.32839
     2010.40657       -24.75014        13.04710
     2010.40931       -27.97390        13.44997
     2010.41205       -31.32531        13.71961
     2010.41478       -16.68269        12.96348
     2010.41752       -33.19654        14.04404
     2010.42026       -19.80247        13.30266
     2010.42300       -23.06081        12.28654
     2010.42574       -26.72834        12.63996
     2010.42847       -35.39008        12.55256
     2010.43121       -37.46029        13.45615
     2010.43395       -28.40104        14.12074
     2010.43669       -32.15269        12.50208
     2010.43943       -20.50458        13.07382
     2010.44216       -33.78888        13.94193
     2010.44490       -29.64995        12.42625
     2010.44764       -12.05583        12.42171
     2010.45038       -19.89990        12.69310
     2010.45311       -19.22541        13.13022
     2010.45585       -25.82883        13.03557
     2010.45859       -30.21613        13.18747
     2010.46133       -23.90728        12.59644
     2010.46407       -28.72552        14.51358
     2010.46680       -20.97160        17.55603
     2010.46954        -8.13563        13.93216
     2010.47228       -20.71592        12.99371
     2010.47502       -34.60492        13.21611
     2010.47775       -23.57008        13.72491
     2010.48049        -6.60443        15.25477
     2010.48323       -29.02404        14.76423
     2010.48597       -14.40125        14.06107
     2010.48871       -23.55171        14.07551
     2010.49144       -31.98187        14.86735
     2010.49418       -27.84115        14.35995
     2010.49692       -27.11119        14.14051
     2010.49966       -21.53859        12.93662
     2010.50240       -15.38520        13.32166
     2010.50513       -21.50415        13.43502
     2010.50787        -0.68454        12.74185
     2010.51061       -20.84963        12.83036
     2010.51335       -17.73762        12.74944
     2010.51608       -16.50679        15.95005
     2010.51882       -29.83037        13.84281
     2010.52156        -3.19722        13.17836
     2010.52430       -24.96087        14.14280
     2010.52704       -16.04808        13.14600
     2010.52977       -20.86899        12.76434
     2010.53251       -18.42413        12.85316
     2010.53525        -8.39962        14.37778
     2010.53799       -12.34988        15.53648
     2010.54073       -22.40325        13.22523
     2010.54346       -25.50432        13.24976
     2010.54620       -21.09887        12.94015
     2010.54894       -34.01241        13.46733
     2010.55168       -21.40463        18.54614
     2010.55441        -5.81462        12.69866
     2010.55715       -34.00081        14.77208
     2010.55989       -29.50431        16.33067
     2010.56263       -18.95855        12.99602
     2010.56537        -7.26594        13.31412
     2010.56810       -20.70187        12.22081
     2010.57084       -15.03840        12.63661
     2010.57358       -18.36584        14.87980
     2010.57632       -25.08937        13.12547
     2010.57906       -20.77862        14.01677
     2010.58179        -9.95768        13.78032
     2010.58453       -22.82179        14.14278
     2010.58727       -11.37919        15.20837
     2010.59001       -26.92657        16.27417
     2010.59274        -5.81125        13.15298
     2010.59548         0.03633        14.01134
     2010.59822       -23.18288        14.50671
     2010.60096       -16.14246        13.09710
     2010.60370       -14.01105        14.98373
     2010.60643       -24.34247        13.17216
     2010.60917        -5.32880        15.27514
     2010.61191       -19.87268        12.98683
     2010.61465       -15.20091        14.15353
     2010.61739       -28.80408        13.87019
     2010.62012       -11.11854        13.88335
     2010.62286       -18.14384        13.81556
     2010.62560       -26.32588        14.43690
     2010.62834       -21.16206        16.72313
     2010.63107         3.78583        13.61932
     2010.63381       -21.55199        13.13752
     2010.63655       -18.02075        14.58999
     2010.63929       -19.89687        13.55238
     2010.64203       -11.52936        12.92134
     2010.64476       -18.38074        13.22631
     2010.64750       -18.55803        12.43373
     2010.65024       -35.09801        15.58641
     2010.65298       -16.52217        14.94609
     2010.65572       -11.81497        14.47249
     2010.65845       -21.64915        13.69375
     2010.66119       -14.83638        13.58462
     2010.66393       -24.89776        16.14466
     2010.66667       -21.86477        13.23782
     2010.66940       -22.95825        14.73270
     2010.67214       -12.68376        13.31896
     2010.67488       -10.69818        12.58735
     2010.67762        -4.52861        24.92463
     2010.68309       -19.57642        20.19560
     2010.68583       -24.82324        18.02690
     2010.68857       -22.85175        13.16330
     2010.69131       -24.74512        13.54268
     2010.69405       -11.46451        14.10668
     2010.69678       -17.98175        13.14561
     2010.69952       -24.46029        14.42668
     2010.70226       -14.13602        14.02534
     2010.70500         4.11585        14.23380
     2010.70773       -25.18037        14.76020
     2010.71047       -23.34124        14.88145
     2010.71321        -4.64355        13.73838
     2010.71595        -1.07260        13.43618
     2010.71869        -4.21398        13.53229
     2010.72142       -16.30891        15.30077
     2010.72416       -33.27194        13.58492
     2010.72690       -65.38700        13.40050
     2010.72964       -15.84445        16.38570
     2010.73238       -32.15778        14.92871
     2010.73511       -15.56012        14.89265
     2010.73785       -27.38061        15.14235
     2010.74059        -9.42603        15.58084
     2010.74333       -19.44566        14.37764
     2010.74606       -29.15626        16.77479
     2010.74880       -13.66496        13.53525
     2010.75154       -14.74899        16.81735
     2010.75428       -16.22746        13.58749
     2010.75702       -43.26279        12.80032
     2010.75975       -27.22244        13.25753
     2010.76249        -2.04664        13.52173
     2010.76523        -3.75305        13.26329
     2010.76797       -32.21729        14.35607
     2010.77070       -21.04509        12.95552
     2010.77344        -5.08429        13.95774
     2010.77618       -14.54186        11.94763
     2010.77892       -26.34883        14.92383
     2010.78166       -16.52110        13.18519
     2010.78439        -9.75324        15.63146
     2010.78713       -18.98650        18.62377
     2010.78987       -15.85196        15.64151
     2010.79261       -17.27453        15.41281
     2010.79535       -22.35018        15.35342
     2010.79808       -14.93524        14.67216
     2010.80082       -12.23208        13.64256
     2010.80356       -13.67978        15.43519
     2010.80630         5.44136        14.87650
     2010.80903       -19.99539        16.68511
     2010.81177       -19.54392        15.64743
     2010.81451       -19.22946        16.12581
     2010.81725       -19.14628        14.48622
     2010.81999       -26.71940        13.23168
     2010.82272       -19.40074        16.08723
     2010.82546       -17.91134        15.37387
     2010.82820       -29.33082        13.57568
     2010.83094       -25.99069        13.88202
     2010.83368       -49.69162        15.46319
     2010.83641       -17.20388        13.30493
     2010.83915       -31.07592        15.65276
     2010.84189       -27.26224        15.70413
     2010.84463       -14.23267        13.39085
     2010.84736       -23.08128        14.83187
     2010.85010        -5.32652        14.36721
     2010.85284       -23.25360        13.80697
     2010.85558       -12.64068        16.23709
     2010.85832       -12.80345        15.27749
     2010.86105       -32.86420        15.69927
     2010.86379       -18.42199        16.07107
     2010.86653       -24.14877        14.16774
     2010.86927       -20.88554        13.04625
     2010.87201       -30.12111        14.43577
     2010.87474       -17.16613        12.90830
     2010.87748       -27.06221        13.07146
     2010.88022        -6.88763        14.00108
     2010.88296        -9.84160        19.20326
     2010.88569       -14.80176        13.23663
     2010.88843       -23.33564        14.94335
     2010.89117       -16.30468        13.73168
     2010.89391       -13.62601        13.11645
     2010.89665       -13.32946        13.17568
     2010.89938       -18.91216        13.24904
     2010.90212       -34.71181        13.14700
     2010.90486       -14.94478        13.61061
     2010.90760       -24.24150        14.01026
     2010.91034       -22.81537        13.85001
     2010.91307       -24.97037        13.63214
     2010.91581       -22.45230        13.14933
     2010.91855       -26.37373        12.60115
     2010.92129       -20.43772        12.65070
     2010.92402       -37.95202        13.38816
     2010.92676       -12.13007        12.03669
     2010.92950         7.17563        12.36880
     2010.93224       -25.19300        12.30911
     2010.93498       -11.61884        13.33134
     2010.93771       -12.96198        12.42039
     2010.94045       -13.29756        12.72413
     2010.94319       -22.38121        12.31638
     2010.94593       -26.47895        12.46020
     2010.94867       -31.96673        13.79724
     2010.95140       -24.41314        14.54137
     2010.95414       -23.12740        13.69628
     2010.95688       -37.18262        14.47785
     2010.95962       -24.89508        15.03656
     2010.96235       -10.61863        13.43144
     2010.96509       -22.12368        13.19442
     2010.96783       -15.40300        13.54551
     2010.97057       -17.03138        12.64439
     2010.97331        -4.92616        13.88089
     2010.97604       -22.81988        13.15674
     2010.97878       -31.05870        14.03776
     2010.98152       -27.70875        13.08651
     2010.98426       -21.82642        13.55645
     2010.98700       -25.82924        12.81327
     2010.98973       -11.44782        14.71355
     2010.99247       -17.02916        14.95201
     2010.99521       -21.08673        14.72347
     2010.99795       -21.70007        17.12784
     2011.00616       -25.41729        27.66351
     2011.00890       -30.83858        15.98352
     2011.01164       -25.46504        14.59870
     2011.01437       -27.65248        13.16400
     2011.01711       -34.22737        14.84274
     2011.01985       -35.44878        16.86102
     2011.02259       -32.33995        14.61677
     2011.02533       -35.27029        14.36725
     2011.02806       -24.20155        14.16260
     2011.03080       -31.32601        14.86659
     2011.03354       -25.56345        14.54772
     2011.03628       -47.46088        14.11674
     2011.03901       -30.86609        15.02649
     2011.04175       -30.06180        13.08676
     2011.04449       -31.24099        13.60363
     2011.04723       -21.56882        13.74492
     2011.04997       -22.78264        14.77708
     2011.05270       -25.53961        13.68643
     2011.05544       -32.78512        13.50543
     2011.05818       -28.67698        13.65451
     2011.06092       -33.76419        14.61736
     2011.06366       -16.47308        13.53746
     2011.06639       -35.10535        14.93178
     2011.06913       -33.38113        15.03065
     2011.07187       -25.90778        13.91627
     2011.07461       -24.12944        15.04427
     2011.07734       -36.52472        14.61233
     2011.08008       -26.15111        15.30856
     2011.08282       -31.54661        12.14747
     2011.08556       -29.44390        13.73193
     2011.08830       -27.31121        13.39836
     2011.09103       -20.68918        13.44961
     2011.09377       -29.42940        13.41574
     2011.09651       -36.20836        12.37347
     2011.09925       -31.90123        12.66920
     2011.10198       -16.51351        13.89314
     2011.10472       -34.89082        12.84972
     2011.10746       -32.42970        13.91241
     2011.11020       -28.71824        13.39145
     2011.11294        -1.64300        14.47013
     2011.11567       -14.12377        14.23993
     2011.11841       -15.48332        13.48285
     2011.12115       -20.88011        14.24564
     2011.12389        -8.54771        14.18570
     2011.12663       -29.85090        16.65122
     2011.12936       -20.46325        16.77120
     2011.13210       -22.45462        14.69146
     2011.13484       -34.13580        14.40536
     2011.13758       -20.50177        13.62687
     2011.14031       -19.36743        16.00764
     2011.14305       -29.95928        15.72735
     2011.14579       -19.55506        14.00563
     2011.14853       -20.57297        12.58510
     2011.15127       -19.82564        13.76964
     2011.15400        -1.73733        14.86918
     2011.15674       -15.03059        15.15215
     2011.15948       -11.43286        15.96559
     2011.16222       -29.29718        14.75782
     2011.16496       -20.62126        13.20037
     2011.16769       -29.47042        13.94919
     2011.17043       -32.28718        14.35675
     2011.17317       -26.71831        15.53187
     2011.17591       -31.43157        15.08705
     2011.17864       -29.28614        14.30351
     2011.18138       -24.60427        14.26460
     2011.18412       -16.49399        14.42471
     2011.18686       -26.57541        14.86131
     2011.18960       -19.41226        14.64076
     2011.19233       -28.74491        13.57857
     2011.19507       -21.20066        15.06835
     2011.19781       -18.77301        14.66272
     2011.20055       -32.19431        15.82898
     2011.20329       -11.12509        15.43454
     2011.20602       -21.89108        14.62375
     2011.20876       -26.88836        15.06142
     2011.21150       -28.41740        14.76411
     2011.21424       -19.61135        14.63650
     2011.21697       -24.94611        14.28511
     2011.21971       -20.28957        14.52001
     2011.22245       -22.42314        13.60288
     2011.22519       -21.09569        15.27975
     2011.22793       -24.90356        14.86439
     2011.23066       -30.93309        15.27580
     2011.23340       -24.02960        14.08236
     2011.23614       -16.36180        14.18419
     2011.23888       -29.85625        14.99164
     2011.24162       -31.56117        14.45479
     2011.24435       -27.38097        15.65654
     2011.24709       -21.81696        15.94498
     2011.24983       -21.24373        16.19306
     2011.25257       -21.98374        15.71211
     2011.25530       -30.94145        17.37309
     2011.25804       -27.04170        16.72094
     2011.26078       -26.90623        16.33704
     2011.26352       -34.94287        15.23251
     2011.26626       -30.15865        15.35841
     2011.26899       -17.09157        15.09142
     2011.27173       -25.62513        16.40189
     2011.27447       -13.20628        15.07678
     2011.27721       -18.94006        14.64726
     2011.27995       -32.55178        13.80793
     2011.28268       -22.58369        14.78874
     2011.28542       -36.73885        16.65430
     2011.28816       -28.23956        14.72476
     2011.29090       -16.19487        13.89458
     2011.29637       -14.87345        14.17439
     2011.29911       -26.03048        13.92396
     2011.30185       -13.19603        14.60042
     2011.30459       -24.14531        14.75442
     2011.30732       -20.43434        13.21049
     2011.31006       -19.51502        14.43435
     2011.31280       -15.90168        14.14647
     2011.31554       -24.73659        13.76945
     2011.31828       -22.46407        13.98485
     2011.32101       -26.34332        14.24554
     2011.32375       -29.07547        15.58645
     2011.32649       -28.29527        14.37374
     2011.32923       -37.60203        15.02398
     2011.33196       -21.44713        15.35512
     2011.33470       -29.88529        15.76218
     2011.33744       -23.77483        13.70532
     2011.34018       -31.37171        15.33393
     2011.34292       -21.25053        14.91792
     2011.34565       -16.63196        12.66805
     2011.34839       -23.77606        13.23588
     2011.35113       -22.89212        12.48357
     2011.35387       -24.59681        12.59434
     2011.35661       -37.55373        15.62842
     2011.35934       -33.00587        13.06249
     2011.36208       -41.91569        13.45438
     2011.36482       -29.18523        13.56338
     2011.36756       -29.61974        14.17728
     2011.37029       -23.25420        13.82554
     2011.37303       -30.97198        16.50980
     2011.37577       -31.71349        13.36981
     2011.37851       -20.59185        12.69595
     2011.38125       -19.86999        12.97952
     2011.38398       -21.36993        14.43916
     2011.38672       -32.42947        14.41557
     2011.38946       -31.53238        13.40756
     2011.39220       -24.81541        14.78251
     2011.39493       -30.69394        14.80707
     2011.39767       -55.90769        25.56526
     2011.40041        -8.49673        46.30192
     2011.41684        -0.20596        23.18092
     2011.41958       -33.44982        13.67753
     2011.42231       -23.24630        14.12725
     2011.42505       -31.31291        13.74109
     2011.42779       -38.53608        14.81302
     2011.43053       -33.31662        14.95566
     2011.43326       -29.62560        13.66928
     2011.43600       -45.79943        15.43233
     2011.43874       -32.75664        13.79053
     2011.44148       -34.72314        13.54832
     2011.44422       -29.94038        13.73091
     2011.44695       -27.33038        13.44640
     2011.44969       -32.08713        13.16901
     2011.45243       -21.03879        14.35544
     2011.45517       -17.37885        13.76964
     2011.45791       -15.75673        14.11007
     2011.46064       -21.38551        13.89784
     2011.46338       -31.16494        14.19284
     2011.46612       -37.32642        15.88328
     2011.46886       -17.57394        14.90277
     2011.47159       -37.74095        13.56890
     2011.47433       -28.37544        12.82444
     2011.47707       -23.57773        13.82860
     2011.47981       -25.92725        14.08929
     2011.48255       -23.32735        14.87574
     2011.48528       -14.22342        14.07292
     2011.48802       -12.32683        14.14139
     2011.49076        -8.82485        14.32055
     2011.49350       -19.64499        15.21281
     2011.49624       -21.88847        14.36731
     2011.49897       -11.97587        14.39796
     2011.50171       -18.00784        14.49518
     2011.50445       -19.19983        13.88595
     2011.50719        -9.91056        18.55688
     2011.50992       -17.44230        21.35595
     2011.51266       -12.42530        15.77415
     2011.51540       -16.61699        13.58451
     2011.51814       -20.28098        13.54762
     2011.52088       -21.71404        13.44591
     2011.52361       -14.03496        14.66303
     2011.52635       -18.05814        13.63570
     2011.52909       -31.07029        14.58103
     2011.53183       -15.94838        13.95160
     2011.53457       -22.76093        14.06138
     2011.53730       -26.43782        14.18877
     2011.54004       -25.83074        14.86808
     2011.54278       -13.25800        14.72336
     2011.54552       -18.84017        14.09892
     2011.54825       -14.28701        13.93422
     2011.55099         2.20857        14.10860
     2011.55373       -15.90200        13.84128
     2011.55647       -18.58593        15.36236
     2011.55921       -21.38536        13.90660
     2011.56194       -18.93020        14.24809
     2011.56468       -15.52118        13.10775
     2011.56742        -9.08587        12.69744
     2011.57016       -16.77514        15.88759
     2011.57290       -10.07853        14.27644
     2011.57563        -9.74763        14.82424
     2011.57837         6.49253        14.79137
     2011.58111       -21.79412        13.25141
     2011.58385         2.36141        14.43836
     2011.58658       -10.49773        14.59428
     2011.58932       -17.37275        14.45539
     2011.59206       -13.27307        12.33375
     2011.59480       -17.18153        13.13089
     2011.59754       -17.49420        14.78444
     2011.60027        -6.51055        15.15484
     2011.60301        -8.11822        13.74286
     2011.60575       -20.04559        15.40895
     2011.60849         5.85680        14.03467
     2011.61123       -18.66029        16.05305
     2011.61396       -12.74434        16.78194
     2011.61670        -4.85997        18.19560
     2011.61944       -17.59296        16.33126
     2011.62218       -14.99464        14.93115
     2011.62491       -21.16521        14.16137
     2011.62765       -16.79760        14.60987
     2011.63039        -9.47500        15.30148
     2011.63313       -17.84546        16.39352
     2011.63587       -17.56744        15.12625
     2011.63860       -13.53965        17.34630
     2011.64134        -6.10101        15.46542
     2011.64408        -3.64987        13.90148
     2011.64682       -12.89756        13.16298
     2011.64956        -8.82100        12.79287
     2011.65229        -9.72042        15.10803
     2011.65503        -8.90254        14.13202
     2011.65777        -4.59652        13.76612
     2011.66051        -7.13471        14.35326
     2011.66324       -13.57776        13.73160
     2011.66598       -11.18777        14.41482
     2011.66872       -21.36961        15.64565
     2011.67146        -9.84397        14.08580
     2011.67420        -4.98043        12.63097
     2011.67693        -7.64273        14.47419
     2011.67967       -12.68119        14.38401
     2011.68241       -23.08623        14.18016
     2011.68515        -3.15383        13.04164
     2011.68789       -10.15385        11.82184
     2011.69062        -2.17843        13.54774
     2011.69336        -6.58897        13.53972
     2011.69610        -9.13730        12.33793
     2011.69884       -19.81559        15.76437
     2011.70157        -6.59137        13.88458
     2011.70431       -14.60697        14.95348
     2011.70705       -21.30680        15.81276
     2011.70979        -5.06800        13.07857
     2011.71253       -30.28059        22.27601
     2011.71526       -18.69897        13.50858
     2011.71800       -29.27826        15.10085
     2011.72074        -9.60747        14.43267
     2011.72348        18.08712        13.32860
     2011.72621       -10.78556        14.52375
     2011.72895         2.88179        11.75771
     2011.73169        -1.49670        13.23807
     2011.73443       -11.89448        14.00157
     2011.73717        -3.41801        16.49281
     2011.73990        -7.21806        13.26480
     2011.74264        -2.67595        39.27596
     2011.80014        -9.68157        34.04110
     2011.80287        -8.73633        12.09368
     2011.80561       -21.83900        13.01908
     2011.80835       -12.87658        11.85591
     2011.81109       -12.84672        11.91994
     2011.81383       -15.46375        12.35682
     2011.81656       -26.71223        13.26143
     2011.81930       -18.81215        12.79656
     2011.82204        -5.19787        13.62182
     2011.82478       -14.86046        12.38083
     2011.82752       -22.82216        12.78141
     2011.83025        -8.28680        12.89591
     2011.83299       -13.25429        12.21991
     2011.83573       -16.51825        14.01318
     2011.83847       -15.23161        12.27459
     2011.84120       -15.56588        12.49414
     2011.84394       -18.76359        12.55510
     2011.84668       -17.95682        12.13549
     2011.84942       -25.87731        11.78166
     2011.85216       -14.11125        12.97030
     2011.85489       -15.01423        13.98527
     2011.85763        -3.73224        12.46285
     2011.86037        -3.78506        14.24167
     2011.86311       -10.01093        12.97565
     2011.86585         0.25553        12.96509
     2011.86858        -4.93541        12.56140
     2011.87132        -7.64872        12.80566
     2011.87406       -16.15638        12.83832
     2011.87680       -12.79664        13.97094
     2011.87953        -8.73957        11.87276
     2011.88227       -21.27079        11.92584
     2011.88501       -18.41526        13.00833
     2011.88775       -20.59510        13.09374
     2011.89049       -22.23331        12.70240
     2011.89322       -20.60420        13.78562
     2011.89596       -12.83935        13.05731
     2011.89870        -8.43427        13.07759
     2011.90144       -15.59252        12.14108
     2011.90418       -51.88512        13.52012
     2011.90691        -1.50214        13.09046
     2011.90965       -10.26890        12.54979
     2011.91239       -10.15372        14.53481
