# ================= DQRFIT RESULTS ================
# INPUT FILE: series/LWCK.rad
# OUTPUT: CLEANED_DATA
# FILTER FUNCTION: f(t)
# f(t)=+line(t)+annual(t)
# line(t)=+P 1+P 2*t
# annual(t)=+P 3*sin(2*pi*t+P 4)
# heav(t)=(t<0?0:1)
# TOTAL OBSERVATIONS MTOT= 1781
# INITIAL TIME INTERVAL= 2017.4593 - 2012.1123 =  5.3470
# TOTAL OBSERVATIONS AFTER PREFILTER M= 1778
# TIME-SPAN= 2017.4593 - 2012.1123 =  5.3470
# OBSERVATIONS: USED M=  1778 REJECTED MTOT-M=     3 %USED=   99.8316
# N=  4 PARAMETERS
# MAXSIG= 175.00000
# MAXRES=  43.21323
# SCALE FACTOR FOR LENGTHS: SCL=  10.00000
# SCALE FACTOR FOR SIGMAS: SCLSIG=   1.00000
# CHI^2=   2067.476 DOF=  1774 CHI^2/DOF=   1.16543
# RMS=      9.324 SDEV=      9.319 MEAN=   -0.37973
#  P #       PARAMETER +-    SIGMA %error PARAMETER NAME
# P 1 =     -1639.57316 +-  238.377  14.54 YZERO                              
# P 2 =         0.82279 +-    0.118  14.38 SLOPE                              
# P 3 =         4.75187 +-    0.280   5.89 ANNUAL AMPLITUDE                   
# P 4 =        -2.71704 +-    0.074   2.73 ANNUAL PHASE                       
#       T             B_CLEANED       RE-SCALED_SIG_OBS
     2012.11225        17.79077         6.23124
     2012.11499        20.81500         6.36214
     2012.11773        22.16962         6.36598
     2012.12047        21.63033         6.35174
     2012.12320        18.83753         6.16487
     2012.12594        16.96495         6.23432
     2012.12868         9.37895         6.39514
     2012.13142        16.73564         7.14973
     2012.13415        20.01146         6.58919
     2012.13689        13.61359         6.24508
     2012.13963        21.26480         6.62416
     2012.14237        18.03544         6.39394
     2012.14511        11.99799         6.40328
     2012.14784         7.60873         6.29246
     2012.15058        29.66696         6.12201
     2012.15332        21.92475         6.16607
     2012.15606        16.17155         6.82871
     2012.15880         9.12408        17.05543
     2012.16153        13.76501         6.20380
     2012.16427        10.54132         6.42538
     2012.16701        20.21254         6.85145
     2012.16975        21.46186         6.29880
     2012.17248        10.32305         6.20289
     2012.17522        13.26582         6.24096
     2012.17796         8.00538         6.47249
     2012.18070        15.68469         6.41182
     2012.18344        13.77512         6.23903
     2012.18617        16.06638         6.26301
     2012.18891        11.20197         6.54206
     2012.19165        22.54028         6.24633
     2012.19439        16.20181         6.80417
     2012.19713         6.42268         6.27234
     2012.19986        18.91744         6.29752
     2012.20260        20.79418         6.71634
     2012.20534        13.22392         6.47965
     2012.20808        21.26405         6.07469
     2012.21081         7.24026         6.24563
     2012.21355        12.17156         6.83202
     2012.21629        13.00592         6.38558
     2012.21903         4.83393         6.57383
     2012.22177        11.19134         6.25755
     2012.22450        11.96092         6.14403
     2012.22724        14.35063         6.19154
     2012.22998        16.94481         7.03026
     2012.23272        16.94944         6.32121
     2012.23546        16.24708         6.22071
     2012.23819        13.67329         6.43538
     2012.24093        14.05208         6.15248
     2012.24367        13.20316         6.62055
     2012.24641        20.70964         6.16166
     2012.24914        16.77469         6.29459
     2012.25188        13.11994         6.26168
     2012.25462         9.39832         6.09600
     2012.25736        18.81635         6.31639
     2012.26010        14.77806         7.94180
     2012.26283        14.90167         6.07478
     2012.26557        12.65910         6.11056
     2012.26831        16.52445         6.24666
     2012.27105        11.88591         6.21016
     2012.27379         9.11286         6.26089
     2012.27652        11.86301         6.10203
     2012.27926        15.44809         6.27930
     2012.28200        11.39039         6.20546
     2012.28474         7.03139         6.10975
     2012.28747         6.92265         6.17695
     2012.29021        16.96593         6.05012
     2012.29295        14.41098         6.18372
     2012.29569         6.96648         7.12292
     2012.29843         5.10386         6.21455
     2012.30116        13.94844         6.43237
     2012.30390         2.85996         6.10482
     2012.30664        18.63087         7.58516
     2012.30938        11.51276         6.26870
     2012.31211        20.25876         6.36922
     2012.31485        15.49208         6.29661
     2012.31759         9.36828         6.10208
     2012.32033        19.74568         6.29784
     2012.32307        12.13329         6.39271
     2012.32580        11.38204         6.18851
     2012.32854        11.54656         6.28803
     2012.33128        16.38403         6.22605
     2012.33402        14.23859         6.46908
     2012.33676        15.23911         6.17291
     2012.33949        14.85081         6.28597
     2012.34223         8.45967         6.16553
     2012.34497         4.79818         6.31167
     2012.34771         4.31330         6.17229
     2012.35044        11.66441         6.12876
     2012.35318        14.00661         6.06228
     2012.35592        11.91040         6.14965
     2012.35866         6.86126         6.32572
     2012.36140        10.76328         6.02606
     2012.36413         7.01513         6.99098
     2012.36687        12.65179         6.05778
     2012.36961        12.46911         6.10592
     2012.37235         9.55475         6.13892
     2012.37509        14.48925         6.10002
     2012.37782         7.44473         6.32303
     2012.38056         0.90938         6.20915
     2012.38330        15.74519         6.27854
     2012.38604        10.63545         6.29942
     2012.38877        10.69042         6.21554
     2012.39151         6.25922         6.21439
     2012.39425        15.05635         6.17806
     2012.39699        15.73840         6.32052
     2012.39973         3.96713         6.25948
     2012.40246        14.44399         6.27798
     2012.40520         6.33593         6.66453
     2012.40794        10.11895         6.17975
     2012.41068        18.52280         6.10872
     2012.41342         7.37808         7.97013
     2012.41615        20.52265         6.19867
     2012.41889        17.41368         6.36334
     2012.42163         6.96337         6.13295
     2012.42437        19.26312         6.28893
     2012.42710        12.91396         6.15419
     2012.42984        18.61391         6.29445
     2012.43258        11.01857         6.24326
     2012.43532        18.03907         6.09427
     2012.43806        13.32750         6.10912
     2012.44079        15.00883         6.16251
     2012.44353        14.53018         6.24404
     2012.44627        14.72565         6.53199
     2012.44901        14.53619         6.18172
     2012.45175        14.03083         7.93925
     2012.45448        19.17452         6.20531
     2012.45722        19.41509         6.27935
     2012.45996        18.92399         6.39817
     2012.46270        17.92594         6.57758
     2012.46543        11.04698         6.31717
     2012.46817        10.57259         6.16410
     2012.47091        14.26610         6.23823
     2012.47365        14.94596         6.13985
     2012.47639         5.25343         7.13698
     2012.47912         9.93423         6.23225
     2012.48186         8.89342         6.17670
     2012.48460        13.57645         7.82542
     2012.48734        12.50734         6.10288
     2012.49008        20.77167         6.32072
     2012.49281        16.65016         6.20095
     2012.49555        25.57051         6.18820
     2012.49829        16.54922         6.15984
     2012.50103        21.39043         6.14117
     2012.50376        16.44791         6.19524
     2012.50650        12.56498         6.20394
     2012.50924        11.80255         6.39585
     2012.51198        13.56327         6.20988
     2012.51472         3.77140         6.49083
     2012.51745        20.26994         6.09499
     2012.52019        15.22774         7.48160
     2012.52293        15.54569         7.53136
     2012.52567        19.55162         6.17750
     2012.52841        18.95712         6.10802
     2012.53114        16.23400         6.10815
     2012.53388        22.29008         6.18209
     2012.53662        17.79999         6.21739
     2012.53936        14.22063         6.27114
     2012.54209        15.40007         6.12208
     2012.54483        23.11782         6.23864
     2012.54757        21.88392         6.11155
     2012.55031        25.05204         6.33661
     2012.55305        19.53513         6.11244
     2012.55578        21.89710         6.10698
     2012.55852        14.92329         6.07072
     2012.56126        24.39177         6.17918
     2012.56400        28.75545         6.21253
     2012.56674        29.76868         6.25225
     2012.56947        25.63604         6.22603
     2012.57221        25.51006         6.28223
     2012.57495        25.71674         6.07051
     2012.57769        26.74858         6.15340
     2012.58042        27.83178         6.95310
     2012.58316        28.53154         6.33568
     2012.58590        16.69588         6.65227
     2012.58864        30.00692         6.37661
     2012.59138        25.61988         6.20374
     2012.59411        26.14814         9.11309
     2012.62423        37.28750         8.21276
     2012.62697        23.16692         6.60492
     2012.62971        12.82192         6.19341
     2012.63244        18.60657         6.21611
     2012.63518        29.92415         6.42473
     2012.63792        24.49506         6.19666
     2012.64066        19.25382         7.37638
     2012.64339        17.35946         6.19574
     2012.64613        15.75879         6.16248
     2012.64887        22.99053         6.35117
     2012.65161        30.23010         6.57969
     2012.65435        24.38981         6.19071
     2012.65708        29.46537         6.29484
     2012.65982        23.99625         6.57179
     2012.66256        17.30085         6.41884
     2012.66530        26.80222         6.31553
     2012.66804        21.67158         6.33108
     2012.67077        21.56510         6.49297
     2012.67351        20.93167         6.12084
     2012.67625        23.28141         6.18365
     2012.67899        28.20783         6.41720
     2012.68172        36.15535         6.21809
     2012.68446        29.76556         6.34979
     2012.68720        28.76512         7.01650
     2012.68994        27.43796         6.07470
     2012.69268        23.29885         6.23797
     2012.69541        19.11488         6.41341
     2012.69815        25.42442         6.46826
     2012.70089        22.67335         6.73674
     2012.70363        20.26833         6.16138
     2012.70637        21.14137         6.18388
     2012.70910        29.26687         7.59106
     2012.71184        33.01810         6.42848
     2012.71458        29.66932         6.27374
     2012.71732        27.15411         6.20982
     2012.72005        33.91429         6.34399
     2012.72279        22.24362         6.24043
     2012.72553        22.80535         6.23837
     2012.72827        24.92898         6.14800
     2012.73101        24.12633         7.52394
     2012.73374        24.97852         6.43541
     2012.73648        20.52639         6.24520
     2012.73922        21.77794         7.15517
     2012.74196        26.03789         6.65839
     2012.74470        27.43072         6.20479
     2012.74743        25.92023         6.33293
     2012.75017        26.07491         6.41712
     2012.75291        29.25226         6.24923
     2012.75565        23.64503         6.21618
     2012.75838        21.14873         6.25520
     2012.76112        25.58553         6.22534
     2012.76386        24.50124         6.31993
     2012.76660        28.00946         6.38999
     2012.76934        25.81909         6.48224
     2012.77207        19.98013         6.39280
     2012.77481        24.35393         6.58847
     2012.77755        20.08390         6.59024
     2012.78029        22.54607         6.60925
     2012.78303        20.17233         6.52510
     2012.78576        19.84175         6.52898
     2012.78850        27.89481         6.37076
     2012.79124        22.72664         6.32006
     2012.79398        18.92503         6.20323
     2012.79671        21.04106         6.48968
     2012.79945        17.89671         6.27926
     2012.80219        26.33156         6.43536
     2012.80493        10.30092         6.57043
     2012.80767        21.83599         7.88954
     2012.87064        39.64085        13.39537
     2012.87337        13.36129         6.43280
     2012.87611        16.25100         6.23716
     2012.87885        25.80546         6.13831
     2013.10335         7.19466         9.73354
     2013.10609        20.26095        10.36154
     2013.11704        -0.90736        12.45028
     2013.11978         4.40905        10.39092
     2013.12252        10.99765         9.53024
     2013.12526        14.81027         9.75673
     2013.12799         8.53356         9.67199
     2013.13073        12.62221        10.00819
     2013.13347         8.24801        10.05234
     2013.13621        20.87956        10.35913
     2013.13895        17.08796        10.69707
     2013.14168        -2.84891        10.26357
     2013.14442         2.25504        11.61066
     2013.14716         9.99465        10.01038
     2013.14990        14.53283        10.16531
     2013.15264         1.86641        10.39294
     2013.15537        21.86922        11.32468
     2013.15811         1.14849        11.22619
     2013.16085        20.78373        10.14947
     2013.16359        14.82246        10.54575
     2013.16632         8.16834        10.03677
     2013.16906        11.19596         9.89607
     2013.17180         0.76634        10.10808
     2013.17454       -13.71051        12.27328
     2013.17728        12.14233        10.46038
     2013.18001        10.39718        11.72346
     2013.18275         4.74032        11.08345
     2013.18549         6.81881        10.06459
     2013.18823         5.24599        10.36276
     2013.19097        17.14918        11.19948
     2013.19370        16.25694        11.03894
     2013.19644        13.44015        10.02008
     2013.19918        18.10908        10.08082
     2013.20192        15.42903        10.60173
     2013.20465        12.99500        10.37921
     2013.20739         0.31208         9.93037
     2013.21013         7.42542        10.20693
     2013.21287        20.07481        10.71546
     2013.21561         6.58991        10.96755
     2013.21834        11.34030         9.95409
     2013.22108         5.40532        10.32262
     2013.22382         2.40424        10.81990
     2013.22656        11.47129        10.57176
     2013.22930         3.06425        10.78581
     2013.23203        10.56717        10.50121
     2013.23477        14.99586        10.00115
     2013.23751         3.19544        11.00964
     2013.24025        13.51611        10.52642
     2013.24298        10.74624        10.28668
     2013.24572         9.18750         9.94968
     2013.24846         8.78831        10.31721
     2013.25120        13.62464         9.30225
     2013.25394         6.95730        11.40289
     2013.25667        -2.00415        10.12397
     2013.25941        13.14678        12.16653
     2013.26215        16.15159        11.05586
     2013.26489        20.22384         9.73441
     2013.26762         4.23094        10.62713
     2013.27036         9.46917        10.06389
     2013.27310         2.88962        11.38923
     2013.27584        20.50395         9.78445
     2013.27858        15.73227        10.02425
     2013.28131        12.49877        10.40940
     2013.28405         4.90471        10.88928
     2013.28679         7.25003        10.65563
     2013.28953        11.70118        11.40854
     2013.29227        -3.44104        10.35611
     2013.29500         5.76961        10.26464
     2013.29774        16.67822        11.42787
     2013.31691         4.79852        10.06480
     2013.31964        11.03533        10.20313
     2013.32238         5.47976         9.78529
     2013.32512        11.91970        10.19479
     2013.32786         7.32958        10.27463
     2013.33060         2.07695         9.34525
     2013.33333        -0.00246        13.52512
     2013.33607         9.48964        10.27913
     2013.33881         9.59403        10.65397
     2013.34155         6.26467         9.89164
     2013.34428        12.92321        10.04642
     2013.34702         2.22745         9.18169
     2013.34976        -2.68097        12.97304
     2013.35250         9.14521        10.70936
     2013.35524        14.96193         9.56824
     2013.35797        -1.52949        10.75277
     2013.36071        11.42252        10.45576
     2013.36345        12.56666        10.29362
     2013.36619        14.11404         9.29953
     2013.36893        14.64139         9.56248
     2013.37166         8.52768         9.63164
     2013.37440        -1.62589         9.97326
     2013.37714        13.89183         9.60800
     2013.37988         2.54664         9.86812
     2013.38261         8.61173         9.87139
     2013.38535         4.41803         8.93655
     2013.38809         5.84162         9.89785
     2013.39083         8.67286         9.31543
     2013.39357        20.20671        18.43624
     2013.39904         6.89666        12.37925
     2013.40178        10.06934         9.30139
     2013.40452         7.49274         9.03854
     2013.40726        18.54456        10.16543
     2013.40999        19.66514         9.52657
     2013.41273        15.17982         8.96763
     2013.41547         8.18210        10.32368
     2013.41821        14.00275        10.20444
     2013.42094        20.56224        10.72076
     2013.42368         8.10587         9.79996
     2013.42642        14.58551         9.79901
     2013.42916        17.59812         9.58611
     2013.43190        10.81093         9.42822
     2013.43463         1.85828         9.81273
     2013.43737         7.49339        10.24927
     2013.44011         3.85664        10.55701
     2013.44285        13.78910         9.71512
     2013.44559        11.59440        10.04703
     2013.44832         2.60184         9.30632
     2013.45106        11.65486         9.20697
     2013.45380        12.06531         9.27537
     2013.45654        14.10980        10.67908
     2013.45927         6.68369        13.04764
     2013.46201         7.93330         9.23058
     2013.46475        15.20440         9.52955
     2013.46749        20.62564         9.70446
     2013.47023         6.59659        10.90563
     2013.47296        24.37549         9.36167
     2013.47570        22.70858         9.87483
     2013.47844        40.85658        16.46837
     2013.48118        11.07839        13.60415
     2013.48392        27.22615        11.32061
     2013.48665        11.98560        12.32474
     2013.48939        26.94149        10.37084
     2013.49213        26.56820        12.20213
     2013.49487        14.63612        10.93425
     2013.49760        16.21561         9.26772
     2013.50034        16.01350         8.74934
     2013.50308        14.75107        10.68437
     2013.50582        18.54627         8.97714
     2013.50856        13.10600         8.65085
     2013.51129        20.59581         9.25052
     2013.51403        10.67148         9.13988
     2013.51677        17.81008         9.55389
     2013.51951        21.89043         9.11122
     2013.52225        25.71119         9.49718
     2013.52498        12.27535         9.89437
     2013.52772        22.50793         9.19841
     2013.53046        27.87717         9.78281
     2013.54689        11.64973        22.82090
     2013.54962        11.43678        20.24546
     2013.56057         9.00385        14.41147
     2013.56331        20.29509         9.09669
     2013.56605         7.39422         9.21986
     2013.56879        13.25947         9.28629
     2013.57153        25.70407         9.77470
     2013.57426        26.27980         9.40877
     2013.57700        24.94181         9.24507
     2013.57974        28.87047        10.87754
     2013.58248        14.80220         9.08324
     2013.58522        11.71644         9.19866
     2013.58795        18.35114         9.45352
     2013.59069        18.36147         9.41404
     2013.59343        16.94151        10.24410
     2013.59617        11.81739        11.58513
     2013.59890        12.62747         9.73151
     2013.60164        15.52958         9.34393
     2013.60438        20.72082         9.47369
     2013.60712        18.51829        10.90554
     2013.60986         9.48189         9.18337
     2013.61259        15.40632        10.60779
     2013.61533        14.56328        10.49231
     2013.61807        18.65399         9.52397
     2013.62081        15.98845        10.05255
     2013.62355        21.36047         9.65536
     2013.62628        24.01609        10.27431
     2013.62902        16.64752         9.47063
     2013.63176        10.71461         9.29674
     2013.63450        17.63240        12.40978
     2013.63723        30.28294        10.45199
     2013.63997        20.67667        12.83915
     2013.64271        17.74609        11.40549
     2013.64545         8.24862        10.57008
     2013.64819        24.83527        10.29371
     2013.65092        49.38213        13.63796
     2013.65366        16.37144         9.84344
     2013.65640        31.60095         9.80506
     2013.65914        14.36902         9.28413
     2013.66188        21.87177         9.47349
     2013.66461        16.87508         9.29872
     2013.66735        34.42903         9.69183
     2013.67009        11.29324        10.12551
     2013.67283        18.91835         9.50579
     2013.67556        16.63720         9.91025
     2013.67830        21.03819        10.07069
     2013.68104        10.41181         9.70905
     2013.68378        23.42962         9.08867
     2013.68652        24.01763         8.99707
     2013.68925        22.12458         9.34652
     2013.69199        30.44744         8.81716
     2013.69473        25.94274         9.31813
     2013.69747        21.02193         9.50031
     2013.70021        26.85880         9.33757
     2013.70294         8.55203        11.39524
     2013.70568        15.54282         9.09187
     2013.70842        14.00618        10.55207
     2013.71116        14.93658        10.69226
     2013.71389        23.53210         9.90747
     2013.71663        23.51232        10.20784
     2013.71937        40.29005        10.77320
     2013.72211        24.42239         9.55422
     2013.72485         7.56991        10.46810
     2013.72758        37.40577        10.22450
     2013.73032        20.34751         9.50413
     2013.73306        28.23589         9.26525
     2013.73580        18.51780         9.60632
     2013.73854        17.23469         9.66469
     2013.74127        35.58902        10.45208
     2013.74401        24.12591         9.55579
     2013.74675        44.74200         9.47642
     2013.74949        16.37678        13.54065
     2013.75222        24.73449         9.68545
     2013.75496        16.29100         9.77648
     2013.75770        15.23786         9.85292
     2013.76044         6.38735         9.43390
     2013.76318        15.09604         8.69331
     2013.76591        27.22253         9.09993
     2013.76865        10.13809         9.24092
     2013.77139         9.26600        10.42648
     2013.77413        -4.88576         9.31863
     2013.77687         8.07540        11.76816
     2013.77960        14.47519         9.74786
     2013.78234         6.07121        11.42646
     2013.78508        22.07094        14.46466
     2013.78782        -1.63426         9.76273
     2013.79055        17.02108         9.34496
     2013.79329        21.93022         8.64519
     2013.79603         7.93929         8.91416
     2013.79877        19.00909         9.45968
     2013.80151        19.52878         9.88698
     2013.80424        13.89752         9.43971
     2013.80698        16.20407         9.21627
     2013.80972        18.72844         9.78828
     2013.81246        13.15224         9.19194
     2013.81520        13.75385         9.12211
     2013.81793         9.87720         8.96061
     2013.82067        15.56388         8.90968
     2013.82341        19.78369         9.37135
     2013.82615         6.08878        15.10906
     2013.82888        17.79281         9.17581
     2013.83162        19.63312        10.17812
     2013.83436        12.92116         9.11201
     2013.83710        29.70210         8.88737
     2013.83984        17.46345         9.10297
     2013.84257        14.78722         9.23820
     2013.84531        24.24877         9.24703
     2013.84805        12.34952         8.80349
     2013.85079        12.97971         8.99493
     2013.85352        22.60998         9.14970
     2013.85626        21.99594         9.43099
     2013.85900        17.74161         9.83908
     2013.86174        20.35929        10.35981
     2013.86448         4.70072        11.38619
     2013.86721        15.98640         9.79747
     2013.86995        20.46172        10.47506
     2013.87269        20.61893         9.50139
     2013.87543        32.96070         8.81763
     2013.87817        18.77867         8.81383
     2013.88090        33.32473        10.94631
     2013.88364        26.56691         9.00402
     2013.88638        18.34173         8.96214
     2013.88912        16.32252         9.83963
     2013.89185        11.97178         8.92584
     2013.89459        15.42836         9.04781
     2013.89733         9.71032         9.19728
     2013.90007        18.98105         9.41062
     2013.90281         6.12984         9.63761
     2013.90554         3.30031         9.75229
     2013.90828        18.01640         9.26071
     2013.91102        14.54716        10.15295
     2013.91376        12.55094         8.71911
     2013.91650        13.83400         9.14005
     2013.91923        27.50582         9.27009
     2013.92197        18.11631         9.74024
     2013.92471        13.28000         9.00239
     2013.92745         8.85331         9.62199
     2013.93018         7.57772        19.18285
     2013.93292        12.88850         9.26031
     2013.93566         9.02894         9.12345
     2013.93840        25.95844         9.26323
     2013.94114        20.24367         9.69332
     2013.94387        16.94034        16.03115
     2013.94661         2.69889         9.35437
     2013.94935         9.31453        10.28982
     2013.95209        11.52647         9.17955
     2013.95483        15.56401        11.19007
     2013.95756        11.91980        11.59634
     2013.96030         8.71487        10.19823
     2013.96304         3.86220        11.94062
     2013.96578        14.53051         9.13211
     2013.96851        14.32361         9.25437
     2013.97125        14.14026         8.85661
     2013.97399        13.09513         9.03595
     2013.97673         6.91265         9.56415
     2013.97947        17.21296         9.18601
     2013.98220        12.47940        10.04159
     2013.98494         8.64139         8.80775
     2013.98768         8.69906         9.32421
     2013.99042         9.52085         9.70295
     2013.99316         0.62824         9.12244
     2013.99589         7.11761         8.71457
     2013.99863         6.57991         9.31681
     2014.00137        15.26154         9.19315
     2014.00411        -2.74926         8.92036
     2014.00684        14.53438         8.96605
     2014.00958         4.87696         8.91740
     2014.01232         6.23664         9.06047
     2014.01506         7.44400        10.08861
     2014.01780        13.05033         9.30301
     2014.02053         8.06783         8.87036
     2014.02327        12.79335         9.41629
     2014.02601        14.90732         9.20632
     2014.02875        17.33982         8.95709
     2014.03149        22.70575         8.96466
     2014.03422         7.19188         9.34356
     2014.03696        17.13503        10.39309
     2014.03970        14.96303         9.69712
     2014.04244         9.06004         9.99713
     2014.04517        10.84045         9.91736
     2014.04791        22.16210         8.62177
     2014.05065        18.13173         9.63339
     2014.05339        17.26599         9.25915
     2014.05613        13.16836         9.35266
     2014.05886        11.55668         9.22597
     2014.06160        20.15593         9.94929
     2014.06434        20.60512         8.90940
     2014.06708        18.42936         9.18407
     2014.06982        19.90520         9.37991
     2014.07255         5.61237         9.41118
     2014.07529        12.83389         8.94730
     2014.07803        10.72368         8.58937
     2014.08077        12.61722         9.56667
     2014.08350        27.18410         9.98501
     2014.08624        12.55074         8.76959
     2014.09172         8.74493         9.87158
     2014.09446        15.58678         9.20558
     2014.09719        22.71678        10.38344
     2014.09993        19.94923         9.29765
     2014.10267        16.69634         9.61022
     2014.10541        14.62018         8.80753
     2014.10815        10.59736         9.59973
     2014.11088        24.50624        10.67426
     2014.11362        10.98804        10.27763
     2014.11636        11.85658         9.21643
     2014.11910        12.75816         9.29691
     2014.12183        26.87874         9.01093
     2014.12457        16.52033        13.13655
     2014.12731        23.03650         9.61076
     2014.13005        25.87294        10.64990
     2014.13279        18.99372        11.21262
     2014.13552        21.89288        10.57396
     2014.13826         9.91516        12.26672
     2014.14100        19.88150         9.27413
     2014.14374        21.97897        10.86195
     2014.14648        21.79288        10.69731
     2014.14921         6.68059        10.27190
     2014.15195        15.05928        10.71274
     2014.15469        24.41852         9.87349
     2014.15743        26.95018         9.75618
     2014.16016        12.92756        10.94902
     2014.16290        13.42197        10.98847
     2014.16564        14.03206        10.47574
     2014.16838        17.21489        10.00673
     2014.17112        18.90170        11.08882
     2014.17385        12.71365        10.45920
     2014.17659        14.19918        10.74556
     2014.17933        23.06495        11.54947
     2014.18207        23.45399        11.31058
     2014.18480         8.22145        10.93487
     2014.18754        24.41569        11.34510
     2014.19028        14.02429        11.57559
     2014.19576         8.78809         9.29293
     2014.19849         7.70831        10.96905
     2014.20123        11.87327         9.77095
     2014.20397        -8.01608         9.73188
     2014.20671         8.36761        10.98309
     2014.20945         1.44404         9.96666
     2014.21218        23.67932        10.43732
     2014.21492        25.75028        10.51927
     2014.21766        24.61413         9.53780
     2014.22040         9.21615        18.75157
     2014.22313         8.53836        10.62682
     2014.22587         8.92579         9.95646
     2014.22861        14.81284         9.43074
     2014.23135        11.80658         9.36758
     2014.23409         6.09528         9.53423
     2014.23682        -1.46291        12.49640
     2014.23956        14.59458        23.07517
     2014.24230        22.40737         9.78358
     2014.24504         4.24114        10.23948
     2014.24778        14.61989        11.01608
     2014.25051        12.60252        10.13751
     2014.25325        13.07852         9.73900
     2014.25599        15.77115         9.56923
     2014.25873        12.73707        11.08039
     2014.26146        13.25097        10.05203
     2014.26420         9.00209         9.75045
     2014.26694        23.36925        12.48916
     2014.26968         9.22592        10.11564
     2014.27515        11.71777        11.38193
     2014.28063         8.25504        13.69734
     2014.28337        16.55880        10.40287
     2014.28611        14.07671        10.66852
     2014.28884        10.72201         9.86308
     2014.29158        11.47819        12.67465
     2014.29432        14.20579         9.85242
     2014.29706        17.60175         9.59385
     2014.29979        17.93946         9.96554
     2014.30253        18.78475         9.44328
     2014.30527        20.32857         9.42319
     2014.30801        11.69052         9.47956
     2014.31075         1.12447         9.02564
     2014.31348         8.56376         9.47074
     2014.31622         7.26249         9.50664
     2014.31896        11.66906         9.99862
     2014.32170        -6.66561        10.60050
     2014.32444         4.51749        11.38329
     2014.32717         7.43462        10.05948
     2014.32991         8.66006        10.39406
     2014.33265        10.93938        10.43199
     2014.33539        14.55564        10.32359
     2014.33812        15.73891        11.13134
     2014.34086        12.45125        10.60308
     2014.34360         4.54589        10.03377
     2014.34634        21.78301        15.48948
     2014.34908         9.11417        10.68822
     2014.35181        19.51445        11.99167
     2014.35455         8.29313        10.96058
     2014.35729        -4.19936        10.24342
     2014.36003        -5.27136        10.56708
     2014.36277         4.26940        10.71899
     2014.36550         6.52960         9.87677
     2014.36824        17.64698        11.21031
     2014.37098         8.50581        10.34316
     2014.37372        16.07156        10.64042
     2014.37645        14.15271        10.87655
     2014.37919         8.32146        10.15227
     2014.38193        14.02539        10.29336
     2014.38467        22.99073        10.66516
     2014.38741        16.99389        10.60722
     2014.39014        22.97809        10.93537
     2014.39288        21.39040        11.16380
     2014.39562        13.90978        10.04781
     2014.39836        12.36381        10.45209
     2014.40110        16.90215        10.57654
     2014.40383        17.48323        10.10971
     2014.40657        10.57920         9.36781
     2014.40931        12.46408         9.71216
     2014.41205        22.96405         9.82998
     2014.41478        25.40247        12.59767
     2014.41752        20.50232        10.55887
     2014.42026         7.91287        12.29887
     2014.42300        13.27283        10.39477
     2014.42574        21.57229        10.37854
     2014.43121        19.15804        11.36822
     2014.43395        29.28620         9.85670
     2014.43669        12.52860        10.02543
     2014.43943        15.78670        11.02022
     2014.44216         2.31269         9.93042
     2014.44490        11.46422        11.57152
     2014.44764        16.93129         9.89833
     2014.45038        18.22334        10.62409
     2014.45311        12.21272        10.07510
     2014.45585        15.84670        10.02435
     2014.45859        24.71355         9.98296
     2014.46133        23.84649        10.12563
     2014.46407         7.10566         9.74972
     2014.46680         7.68954        10.91100
     2014.46954         9.06446         9.78822
     2014.47228        16.56225        10.53283
     2014.47502        27.28521        10.58065
     2014.47775        16.27153        10.08372
     2014.48049        27.82220        12.69034
     2014.48323        17.33771        11.07716
     2014.48597        -5.57460        10.56672
     2014.48871        23.56343        10.49004
     2014.49144        18.63145        11.13530
     2014.49418        31.85141         9.81448
     2014.49692        29.59499        10.16130
     2014.49966        17.87674         9.55230
     2014.50240        23.19100        10.36419
     2014.50513        19.88915        11.57683
     2014.50787        25.88614        10.38615
     2014.51061        24.03451        10.19770
     2014.51335        13.62506         9.76874
     2014.51608        22.23480         9.94804
     2014.51882         4.02757        10.20750
     2014.52156        23.25248        10.55303
     2014.52430        29.61794        11.17030
     2014.52704        18.39934        10.30854
     2014.52977        11.12308        10.66642
     2014.53251        13.52456        10.35752
     2014.53525        22.77456        11.26676
     2014.53799        17.49960        10.73828
     2014.54073        27.89492        10.19643
     2014.54346        20.55079        10.43441
     2014.54620        16.52719         9.97378
     2014.54894         8.27098        10.48375
     2014.55168        13.53676        10.97706
     2014.55441        26.55870        10.53434
     2014.55715        29.26003        11.83660
     2014.55989        15.95526        10.44643
     2014.56263        23.07452        10.01037
     2014.56537        17.01183        10.77880
     2014.56810        16.20065        11.03167
     2014.57084        20.09630        10.44684
     2014.57358        26.33485        10.23494
     2014.57632        20.81093         9.50674
     2014.57906        36.53955         9.23755
     2014.58179        14.10784        11.23285
     2014.58453        23.59302        10.18317
     2014.58727        19.70210        11.98506
     2014.59001        28.15764        10.10677
     2014.59274        30.35361         9.39268
     2014.59548        19.30866        10.05021
     2014.59822        21.63267         9.58833
     2014.60096        15.55131         9.69412
     2014.60370        22.71676        10.29458
     2014.60643        30.28616        10.53686
     2014.60917        14.34235        10.56166
     2014.61191        27.72254        10.74431
     2014.61465        22.35779        11.73159
     2014.61739         9.64130        12.06990
     2014.62012        12.75177        10.44803
     2014.62286        25.87491        10.07114
     2014.62560        35.12608        10.16940
     2014.62834        28.65471        10.50723
     2014.63107        22.29962        10.40945
     2014.63381        24.99045         9.99139
     2014.63655        23.83240        10.46960
     2014.63929        14.39680        10.63600
     2014.64203        12.20816        10.95078
     2014.64476         6.89320        10.41415
     2014.64750        11.77087        12.23435
     2014.65024        25.93537        10.61784
     2014.65298        39.41004        11.24094
     2014.65572        21.75706        11.12890
     2014.65845         6.02282        10.05442
     2014.66119        33.09252        11.71896
     2014.66393        29.43671        10.27672
     2014.66667        19.99567        11.75417
     2014.66940        30.20776        10.64013
     2014.67214        13.16268        10.26313
     2014.67488        23.78994        10.11026
     2014.67762        18.00108        11.32827
     2014.68036        22.82196        11.19279
     2014.68309        32.69064        10.62965
     2014.68583        23.39239         9.56816
     2014.68857        13.81393         9.96959
     2014.69131        19.73199        10.82436
     2014.69405        18.16026        10.41219
     2014.69678        20.79267        11.01566
     2014.69952        45.94373        10.70073
     2014.70226        27.99381        10.05392
     2014.70500        19.94979        10.40971
     2014.70773        31.56168        10.36951
     2014.71047        14.63597         9.58633
     2014.71321        21.69799         9.54826
     2014.71595        16.63441        10.24646
     2014.71869        33.69098         9.79752
     2014.72142        29.66484        10.24581
     2014.72416        15.27043        10.60357
     2014.72690       -12.39959        11.64185
     2014.72964        17.46764         9.76049
     2014.73238        32.01771        10.21232
     2014.73511        21.08102         9.76763
     2014.73785        14.88024        10.56674
     2014.74059        23.97008        10.04890
     2014.74333        18.22175        10.34328
     2014.74606        35.27890         9.81890
     2014.74880        23.52670         9.79110
     2014.75154        16.68413         9.69902
     2014.75428        18.93306        11.51857
     2014.75702        29.23150        10.36840
     2014.75975        29.74447        10.18373
     2014.76249        20.46666        10.90755
     2014.76523        16.33341        10.39898
     2014.76797        14.90998         9.90126
     2014.77070        27.98136        16.46484
     2014.78987         4.66698        20.78387
     2014.79261        26.33000        10.45626
     2014.79535        32.16572         9.61413
     2014.79808        34.80398        10.58952
     2014.80082        23.22548        11.25198
     2014.80356        27.27083        10.62425
     2014.80630         2.27933        10.87671
     2014.80903        15.13420        10.41083
     2014.81177        14.90425         9.84997
     2014.81451        20.39671         9.59409
     2014.81725        17.09539        10.84126
     2014.81999         5.72123         9.71160
     2014.82272         2.91113         9.73441
     2014.82546        13.99430        10.69195
     2014.82820         6.77192        10.95561
     2014.83094        21.71219        10.69451
     2014.83368        15.83877        10.82070
     2014.83641        -1.26488        10.50843
     2014.83915        11.23713        11.83176
     2014.84189        18.08709        10.22661
     2014.84463        15.42558        10.50037
     2014.84736        12.78238        11.38066
     2014.85010        19.50853        10.61089
     2014.85284         6.57347        10.77233
     2014.85558         7.04457        10.41682
     2014.85832        19.57611        10.12843
     2014.86105         5.61421        11.28118
     2014.86379        17.87367        11.22917
     2014.86653        17.22903        11.71316
     2014.86927         4.22723        10.84648
     2014.87201        10.07426        10.19227
     2014.87474        16.23697        11.80056
     2014.87748        31.90082        10.70347
     2014.88022        27.62734        10.13812
     2014.88296         5.24771        10.35852
     2014.88569        19.07508         9.52096
     2014.88843        30.72108        11.58311
     2014.89117        18.60330        10.54076
     2014.89391         9.30183        10.54819
     2014.89665        10.21150        10.90725
     2014.89938         6.66982        10.85012
     2014.90212        15.24176        11.03773
     2014.90486         4.22777        10.87482
     2014.90760        24.09505        10.42481
     2014.91034         8.43034        10.10762
     2014.91307        18.51993        11.20857
     2014.91581        11.84769        10.50765
     2014.91855         7.67329        10.99489
     2014.92129        13.18216        10.27706
     2014.92402        28.68830         9.70344
     2014.92676         0.42340        10.82433
     2014.92950         7.09817        10.79034
     2014.93224        10.28913         9.90254
     2014.93498        -7.34714         9.49352
     2014.93771       -16.47272        11.27834
     2014.94045        14.03001        12.24836
     2014.94319        21.45106        10.81821
     2014.94593        18.16544         9.86949
     2014.94867         7.24146        10.10999
     2014.95140        12.64851         9.84704
     2014.95414        -9.21452        11.28352
     2014.95688        14.75477        10.43646
     2014.95962         4.21594        10.19507
     2014.96235        11.28146         9.79173
     2014.96509         8.41808        10.27896
     2014.96783        -6.99505         9.12747
     2014.97057        15.60547         9.60807
     2014.97331         1.88440         9.11840
     2014.97604         7.28994         9.36583
     2014.97878         8.02226         9.72282
     2014.98152        -4.78026         9.55691
     2014.98426        14.30991        10.44979
     2014.98700        16.46745         9.18401
     2014.98973        16.60451         9.32936
     2014.99247        13.68307         9.66370
     2014.99521         7.94472        10.10328
     2014.99795        15.77507        10.13984
     2015.00068        16.25090         9.39730
     2015.00342        13.32613         9.20865
     2015.00616         0.06015        10.16632
     2015.00890        -6.99925        10.92442
     2015.01164         6.72201        11.05234
     2015.01437         2.51205         9.77018
     2015.01711         2.33930        11.33033
     2015.01985        14.00167        11.52962
     2015.02259         4.84983        10.36747
     2015.02533         3.84273        10.50136
     2015.02806        15.34859        11.62647
     2015.03080        11.00786        10.42306
     2015.03354        15.64055        11.41401
     2015.03628        25.03074        11.06407
     2015.03901         1.33652        11.17545
     2015.04175        29.76624        10.36880
     2015.04449        32.11069         9.79329
     2015.04723        18.23882        11.41009
     2015.04997        26.05602         9.38620
     2015.05270        -0.50627        11.79568
     2015.05544        15.56912        11.19902
     2015.05818        14.98229        13.07868
     2015.06092        27.59884        11.12590
     2015.06366        11.38923        13.42353
     2015.06639        24.84318        11.45200
     2015.06913        26.08298        10.99750
     2015.07187        15.94705        11.32873
     2015.07461        15.29224        10.59886
     2015.07734        19.71177        10.39929
     2015.08008         8.46034         9.61644
     2015.08282         1.21661        10.13090
     2015.08556        19.58539         9.80297
     2015.08830        28.03925        10.15762
     2015.09103        25.43868         9.69989
     2015.09377        36.62897         9.94553
     2015.09651        28.83858         9.86948
     2015.09925        33.11323        10.62828
     2015.10198        34.60519        11.04738
     2015.10472        16.48405         9.33494
     2015.10746        24.10027        10.16898
     2015.11020        11.01676        10.79191
     2015.11294         8.66856        12.75103
     2015.11567        15.18141         9.63600
     2015.11841         8.93382         9.00642
     2015.12115         8.99139         9.58810
     2015.12389        19.89245        10.89355
     2015.12663        19.06417         9.89090
     2015.12936        17.15235        10.29187
     2015.13210        11.69455        10.52270
     2015.13484        16.50093         9.74219
     2015.13758        13.95258        10.19476
     2015.14031        22.69153        10.30485
     2015.14305        17.03074         9.35419
     2015.14579        26.96308         9.42995
     2015.14853        16.98170        10.48819
     2015.15127        21.60314         9.18538
     2015.15400        22.25288         9.87224
     2015.15674        16.01924        10.27132
     2015.15948        23.44524         9.52494
     2015.16222        19.65174        10.58614
     2015.16496        15.77029         9.57464
     2015.16769        16.90002         9.62565
     2015.17043        17.53799         9.61594
     2015.17317        23.61955        10.82318
     2015.17591         8.45823         9.99004
     2015.17864        19.24355        14.02606
     2015.18138        14.27420         9.59293
     2015.18412        21.27937         9.11579
     2015.18686        17.41483        11.09629
     2015.18960        20.07136        10.21366
     2015.19233        25.16116         9.98072
     2015.19507        12.05002         9.38916
     2015.19781        23.36470         9.53649
     2015.20055        26.11989        10.75539
     2015.20329        11.57321         9.14393
     2015.20602        17.45506        10.21044
     2015.20876        13.74915         9.41328
     2015.21150         0.06782         9.94742
     2015.21424        11.74467         9.02368
     2015.21697        22.36379         9.79768
     2015.21971         7.68995         9.67854
     2015.22245        23.27515         9.79759
     2015.22519        13.36135         9.96926
     2015.22793         1.33954        14.76516
     2015.23066        23.98290        10.80185
     2015.23340        12.69214        10.88555
     2015.23614        14.67497        10.74053
     2015.23888        13.58607        15.67654
     2015.24162        14.39936         9.33582
     2015.24435         6.91871         9.37629
     2015.24709        16.99734         9.33304
     2015.24983        20.24137        10.00721
     2015.25257        24.70782         9.02260
     2015.25530        21.48968         9.13749
     2015.25804        15.03647        10.37171
     2015.26078         9.88199         9.28744
     2015.26352        27.37865        10.17843
     2015.26626        14.66929        11.38896
     2015.26899        20.65207         9.79097
     2015.27173        22.66778        10.03342
     2015.27447        39.95660        10.73791
     2015.27721        21.34003        10.12712
     2015.27995        15.50306         9.99844
     2015.28268        16.66928         9.71716
     2015.28542        14.15271         9.80279
     2015.28816         9.95444         9.86660
     2015.29090        28.42129        11.16897
     2015.29363        18.85215         9.99941
     2015.29637        23.88198         9.73038
     2015.29911        24.28799         9.71749
     2015.30185         9.11898         9.60072
     2015.30459        40.62949        10.01115
     2015.30732        22.76301         9.64663
     2015.31006        22.30886         9.91734
     2015.31280        10.18128        11.53301
     2015.31554        16.04583         9.55481
     2015.31828        13.49460         9.80130
     2015.32101         7.68725        10.16951
     2015.32375        31.33430        10.82773
     2015.32649        18.59606        10.52041
     2015.32923        26.71005         9.95154
     2015.33196        25.57618         9.44946
     2015.33470        14.75113         9.51611
     2015.33744        17.41769         9.82677
     2015.34018        31.56968         9.50464
     2015.34292        17.93256        10.11370
     2015.34565        17.42134         9.82685
     2015.34839        13.82284         9.59980
     2015.35113        20.56151         9.99225
     2015.35387        11.12277        10.32140
     2015.35661        15.77567        10.36067
     2015.35934        13.83359        10.09609
     2015.36208        14.53580        10.14367
     2015.36482        18.60080        10.10483
     2015.36756        20.32251        10.60951
     2015.37029        22.82225         9.73631
     2015.37303        12.64689         9.92718
     2015.37577        13.96260         9.78586
     2015.37851        23.04259        10.42153
     2015.38125        21.19204        10.34806
     2015.38398        21.53923        10.07256
     2015.38672        19.79056        10.28326
     2015.38946        17.10750        10.19463
     2015.39220        21.46460         9.86755
     2015.39493        19.96793         9.97380
     2015.39767        26.53926        11.18645
     2015.40041        19.82454         9.26086
     2015.40315        18.51068        10.26666
     2015.40589         8.26896         9.16731
     2015.40862        30.22654         9.92975
     2015.41136        18.62920        10.49875
     2015.41410        32.58782        10.83907
     2015.41684        20.08911        10.26330
     2015.41958        17.35294        13.00022
     2015.42231        22.98825        10.24665
     2015.42505        24.23163         9.56755
     2015.42779         8.97122        14.03369
     2015.43053        11.84373        11.46557
     2015.43326        22.01371         9.81954
     2015.43600        31.52161        10.76361
     2015.43874        17.76223        10.95852
     2015.44148        16.55963        10.51423
     2015.44422         6.71612        10.44652
     2015.44695        22.96022         9.99255
     2015.44969        11.99593        10.42562
     2015.45243        18.63694        11.14008
     2015.45517        19.85422         9.83997
     2015.45791        13.14123        10.43459
     2015.46064        14.67477        11.53692
     2015.46338        23.64428        10.07239
     2015.46612        37.55504        10.76396
     2015.46886        27.49800        11.02481
     2015.47159        15.09172        10.40088
     2015.47433        23.70057        11.64692
     2015.47707         9.81341        10.73995
     2015.47981        28.39517        10.76642
     2015.48255        16.20352        11.18688
     2015.48528         5.54857        11.38722
     2015.48802        19.61459        11.16109
     2015.49076        18.05227        11.11345
     2015.49350        20.27797        10.15820
     2015.49624        19.93038        11.19737
     2015.49897        27.71011        10.81950
     2015.50171        23.95044         9.79972
     2015.50445        10.79858        10.21616
     2015.50719        18.72070         9.55785
     2015.50992        21.73549        10.85175
     2015.51266        24.61349        12.07585
     2015.51540         5.36983        10.67496
     2015.51814        27.47149        11.48790
     2015.52088        33.74849        10.15631
     2015.52361        20.94691        12.61021
     2015.52635        29.22504        10.05605
     2015.52909        20.35850        10.41082
     2015.53183        13.73706        10.49478
     2015.53457        15.13460        10.67399
     2015.53730        24.83435        13.00521
     2015.54004         0.16908        11.06807
     2015.54278        24.71108        10.30720
     2015.54552        17.87285        10.79663
     2015.54825         9.92006        10.94953
     2015.55099        23.79875        11.25735
     2015.55373        23.52950         9.47308
     2015.55647        36.32085         9.52559
     2015.55921        19.24459         9.38845
     2015.56194        26.15802        10.13706
     2015.56468        43.42189        10.06556
     2015.56742        15.50101        10.57360
     2015.57016        19.92715        11.88631
     2015.57290        23.47415        12.29096
     2015.57563        28.54341        11.80459
     2015.57837        41.45209        11.42306
     2015.58111        28.15591        12.22274
     2015.58385        24.45569        11.79291
     2015.58658        14.73971        13.63352
     2015.58932        35.43662        10.67773
     2015.59206        24.34805        10.78178
     2015.59480        31.97664        11.13772
     2015.59754        51.44358        10.76596
     2015.60027        36.68990        12.78186
     2015.60301        24.82722        10.86286
     2015.60575        23.99820        11.28604
     2015.60849        29.26457        10.89098
     2015.61123        35.10679        10.43263
     2015.61396        39.57247        11.02386
     2015.61670        33.17979        11.04489
     2015.61944        15.96153        10.45345
     2015.62218        29.54457        10.76888
     2015.62491        32.15215        10.35939
     2015.62765        28.35065         9.98842
     2015.63039        33.63130         8.81935
     2015.63313        46.70206        10.12346
     2015.63587        21.75103        11.36061
     2015.63860        33.56280        10.26701
     2015.64134        24.11307        11.07046
     2015.64408        35.06633         9.56857
     2015.64682         8.45134        10.73707
     2015.64956        24.55160        10.69364
     2015.65229        24.96303        10.24403
     2015.65503        36.68208        10.44587
     2015.65777         9.13296        11.08725
     2015.66051        42.41617        10.16024
     2015.66324        24.36942        11.12029
     2015.66598        22.93279        10.80950
     2015.66872        21.72933        10.75270
     2015.67146        15.47824         9.97055
     2015.67420        16.55712        10.79751
     2015.67693        28.65056         9.91035
     2015.67967        21.95076        11.31735
     2015.68241        30.08606        11.88064
     2015.68515        30.81156        10.39112
     2015.68789        24.00601         9.29146
     2015.69062        37.71795        13.61036
     2015.69336        30.85199        10.31708
     2015.69610        23.53015        11.24288
     2015.69884        44.63133        10.56126
     2015.70157        27.67739         9.98335
     2015.70431        36.68998        11.10762
     2015.70705        35.64594        10.52452
     2015.70979        21.06836        10.72303
     2015.71253        34.26428        10.74092
     2015.71526        20.73664        10.46185
     2015.71800        20.53094        11.42095
     2015.72074        34.91218        10.58644
     2015.72348        30.91631        10.38794
     2015.72621        20.35372        12.90919
     2015.72895        33.17634        11.39031
     2015.73169        33.38635         9.67516
     2015.73443        37.80366         9.94097
     2015.73717        24.39681        10.75530
     2015.73990        35.69378         9.95199
     2015.74264        29.91383         9.70531
     2015.74538        30.81510        10.13896
     2015.74812        18.85194         9.84706
     2015.75086        28.94804        10.26982
     2015.75359        30.39834        10.80442
     2015.75633        27.76860        11.15153
     2015.75907        12.46730        11.34397
     2015.76181        23.08560        13.69521
     2015.76454        26.07682        10.59941
     2015.76728        32.94388        11.17802
     2015.77002        39.79128        10.33884
     2015.77276        21.13593        10.67190
     2015.77550        29.31928         7.16137
     2015.77823        48.81216         7.25297
     2015.78097        41.62248         7.81487
     2015.78371        37.48308         6.17831
     2015.78645        31.11941         8.33359
     2015.78919        24.08322         7.05075
     2015.79192        28.13023         6.55932
     2015.79466        27.23263         6.25136
     2015.79740        25.59845         7.34178
     2015.80014        44.21546         6.94972
     2015.80287        10.19139         6.02619
     2015.80561        18.91142         6.04742
     2015.80835        19.34989         6.16068
     2015.81109        37.03673         7.16843
     2015.81383        44.96272         6.13523
     2015.81656        20.55792         6.62074
     2015.81930        12.70408         6.42536
     2015.82204        18.29951         5.79236
     2015.82478        28.10900         8.39879
     2015.82752        15.24442         6.85867
     2015.83025        42.22810         6.29323
     2015.83299        17.97676         7.01550
     2015.83573        33.85550         6.05823
     2015.83847        27.91449         6.55328
     2015.84120        10.31117         6.42342
     2015.84394        27.29648         6.45197
     2015.84668        30.37531         7.86076
     2015.84942        20.78353         6.51988
     2015.85216        29.02530         5.94722
     2015.85489        19.92888         7.72434
     2015.85763        19.97665         6.55128
     2015.86037        14.11446         7.11672
     2015.86311        17.17540         7.32872
     2015.86585        31.82627         6.51208
     2015.86858        19.44662         8.73005
     2015.87132         1.67036         8.38844
     2015.87406        26.75502         7.17576
     2015.87680        -9.94811         8.87397
     2015.87953        35.32447         7.68576
     2015.88227        14.75686         6.93139
     2015.88501         2.31516         9.40169
     2015.88775        16.29697         8.00532
     2015.89049        11.26794         7.53824
     2015.89322        18.19286         8.00516
     2015.89596        20.78356         6.80931
     2015.89870        12.15516         6.64031
     2015.90144        23.06606         6.36542
     2015.90418         3.08818        13.07672
     2015.90691        21.93203         7.15830
     2015.90965        17.92753         6.95907
     2015.91239        20.80726         7.19767
     2015.91513         4.96827         7.46765
     2015.91786        -8.02360         8.05194
     2015.92060        20.71384         6.99471
     2015.92334        22.53662         6.88121
     2015.92608        27.78471         6.90159
     2015.92882        12.70232         7.80894
     2015.93155        31.41994         8.45130
     2015.93429         7.50275         7.55186
     2015.93703        20.15269         8.43212
     2015.93977        11.38638         7.44638
     2015.94251        20.03298         8.04721
     2015.94524        11.51614         7.45823
     2015.94798        14.06845         7.07835
     2015.95072         4.37304        15.75424
     2015.95346        -0.25229         8.28384
     2015.95619        18.91988         7.23428
     2015.95893        18.55978         8.68040
     2015.96167        17.12295         7.43265
     2015.96441        38.33283         7.50199
     2015.96715        29.21623         8.48946
     2015.96988        27.47661         6.12901
     2015.97262        22.45583         7.35217
     2015.97536        31.88547         6.93662
     2015.97810        36.75850         7.61108
     2015.98084         6.57897         7.00847
     2015.98357        15.22137         7.86940
     2015.98631        -0.32395         9.71424
     2015.98905         2.02873         9.08113
     2015.99179         1.90128         7.97355
     2015.99452        15.51271         7.29731
     2015.99726         8.27148         8.30764
     2016.00000        26.56666         6.99346
     2016.00274        21.21154        10.34512
     2016.00548        14.63701         8.78286
     2016.00821        13.21806         7.11834
     2016.01095         6.57243         9.25406
     2016.01369        16.29939         6.75195
     2016.01643        -1.56324         9.72069
     2016.01916        26.50227         9.03177
     2016.02190        18.34796         9.57933
     2016.02464         5.34225        11.12019
     2016.02738        20.34729         8.44683
     2016.03012         3.27535         9.21420
     2016.03285        10.83547         7.26914
     2016.03559         8.40203         9.06425
     2016.03833        20.24029         7.14504
     2016.04107        33.69682         7.16810
     2016.04381        21.67177         8.11151
     2016.04654        17.43259         7.54582
     2016.04928        10.84949         8.47210
     2016.05202        22.25091         8.94108
     2016.05476        13.39856         8.63458
     2016.05749         3.36951         9.38075
     2016.06023        -9.74299        10.91965
     2016.06297         8.65238        10.96760
     2016.06571         3.72624         8.11624
     2016.06845         9.38331         8.17578
     2016.07118        21.38412         8.15787
     2016.07392         7.23232         8.42226
     2016.07666        19.93905        12.07837
     2016.07940        21.64713         8.55922
     2016.08214         6.99589         8.32048
     2016.08487         8.46118        11.94511
     2016.08761         6.66398         7.16326
     2016.09035         8.73151         7.28671
     2016.09309        -8.96530        10.80956
     2016.09582        -4.89895         6.46197
     2016.09856        13.03402         7.66717
     2016.10130        30.97489        13.13161
     2016.10404        10.64922         7.83562
     2016.10678        23.15075         8.14459
     2016.10951        20.37733         7.62925
     2016.11225        22.28917         9.66683
     2016.11499        15.15093         7.71841
     2016.11773        22.60611         7.45269
     2016.12047        12.92249         8.89759
     2016.12320        20.68404         7.76850
     2016.12594        14.78989         7.34484
     2016.12868        11.28190         7.53556
     2016.13142        11.18648         7.51203
     2016.13415        26.81723         7.27660
     2016.13689         6.08009         7.68238
     2016.13963        20.48885         9.51899
     2016.14237        16.83649         8.97831
     2016.14511        11.39125         8.10343
     2016.14784        -0.64095         7.26499
     2016.15058        12.12877         7.09165
     2016.15332         8.91821         8.15626
     2016.15606        20.16064         7.41316
     2016.15880        12.02122         8.32060
     2016.16153        29.90236         8.19465
     2016.16427        20.08957         7.60502
     2016.16701        18.75651         8.50245
     2016.16975         9.42499         8.26352
     2016.17248        13.17301         8.92991
     2016.17522        25.54195         8.25365
     2016.17796        23.44412         6.83187
     2016.18070        23.29411         6.34535
     2016.18344        30.58915         8.15445
     2016.18617        22.91427         6.85754
     2016.18891        32.03432         7.05297
     2016.19165        22.30740         6.94148
     2016.19439        22.23250         7.49744
     2016.19713        18.44994         8.05095
     2016.19986        27.46405         9.37476
     2016.20260        25.74054         6.94443
     2016.20534        15.26299         7.29882
     2016.20808        13.48540         6.63957
     2016.21081        13.14184         8.31079
     2016.21355        16.03081         7.50158
     2016.21629         6.23097         9.31836
     2016.21903        11.12785         8.50755
     2016.22177        23.62903         6.69241
     2016.22450        21.93881         6.94842
     2016.22724        15.22532         8.33584
     2016.22998        24.11236         9.59031
     2016.23272        31.64541         9.96876
     2016.23546        31.25911         6.40577
     2016.23819        21.38938         6.86187
     2016.24093        11.86929         7.20309
     2016.24367        13.01368         7.49375
     2016.24641        20.09815         6.81213
     2016.24914        23.19974         6.79056
     2016.25188         3.61806         7.65568
     2016.25462        11.09449         8.18500
     2016.25736        11.54151         7.94105
     2016.26010        24.44384         7.59506
     2016.26283        10.27720         8.96688
     2016.26557        20.76058         6.97681
     2016.26831        23.45215         6.50107
     2016.27105        29.36382         8.34802
     2016.27379        12.46820         7.57679
     2016.27652        19.68373         6.43895
     2016.27926        16.26059         7.49347
     2016.28200         5.55694        13.77699
     2016.28474        23.01042         6.75739
     2016.28747        12.31575         8.14234
     2016.29021        12.55410         7.21168
     2016.29295        19.00047         8.35379
     2016.29569         5.89724         7.32493
     2016.29843        23.96003         8.32088
     2016.30116        10.01187         8.36173
     2016.30390        12.34876         8.24202
     2016.30664        12.65688         7.82027
     2016.30938        16.16913         6.69195
     2016.31211        14.89444         6.53952
     2016.31485         4.67409         8.25793
     2016.31759        13.17367         7.50466
     2016.32033         7.91432         6.83036
     2016.32307        22.15660         8.00998
     2016.32580         8.50618         6.52887
     2016.32854         6.36834         7.39010
     2016.33128        19.78947         7.98811
     2016.33402        25.85830         7.65493
     2016.33676         9.07542         7.99171
     2016.33949         4.71895         7.60383
     2016.34223        26.87875         9.44518
     2016.34497        11.56248         9.33348
     2016.34771        20.59525         7.83052
     2016.35044        42.66080         9.08380
     2016.35318        22.90413         8.22309
     2016.35592        14.53995         7.30233
     2016.35866        13.81868         8.38918
     2016.36140        19.60006         8.15009
     2016.36413        23.16347         8.37258
     2016.36687        36.88019         7.39417
     2016.36961        10.22283         7.70595
     2016.37235        23.99280         7.95135
     2016.37509        26.55341         9.22088
     2016.37782         7.49688         7.01206
     2016.38056        16.35134        13.27684
     2016.39425         2.04552         9.54243
     2016.39699        31.97158         6.99053
     2016.39973        23.48132         8.96184
     2016.40246        33.12979         6.88959
     2016.40520        11.50156        10.51678
     2016.40794        20.98688         6.88433
     2016.41068        34.58690        14.99125
     2016.41342         3.54119        10.03874
     2016.41615        16.41907         7.05744
     2016.41889        19.35074         8.12158
     2016.42163        20.13772         8.78265
     2016.42437        -1.87993         6.99399
     2016.42710        13.21719        11.59486
     2016.42984         3.17899        13.47037
     2016.43258        21.06605        15.94158
     2016.43532        25.74083         7.49845
     2016.43806        35.07004         8.31596
     2016.44079        46.34200        17.25271
     2016.44353        -3.27659        11.26425
     2016.44627        15.31022         6.85056
     2016.44901        25.34670         9.51086
     2016.45175        45.33609        10.21127
     2016.45448        31.99735         9.30077
     2016.45722        21.95699         8.32018
     2016.45996        -0.00684        12.75003
     2016.46270        24.17991        10.29460
     2016.46543        32.86861        15.30174
     2016.46817        37.40908        10.74278
     2016.47091        56.46600        12.90505
     2016.47365        35.01294        14.82090
     2016.47639        42.59332        14.54136
     2016.47912        27.64311        15.97156
     2016.48186        39.74127         8.10006
     2016.48460        33.54696        11.58434
     2016.48734        26.49408         7.86932
     2016.49008        33.54679        12.01560
     2016.49281        26.53919         7.78402
     2016.49555        30.03708         8.57043
     2016.49829        15.72698        16.86540
     2016.50103        32.21370         8.71282
     2016.50376        23.68143        19.15760
     2016.50650        20.77466        11.04630
     2016.50924        37.08384         9.28482
     2016.51198        17.98068        10.56833
     2016.51472        16.03469         8.49138
     2016.51745        19.96716         9.04624
     2016.52019        38.71315        11.34020
     2016.52293        29.00709        22.30120
     2016.52567        21.17108        11.48208
     2016.52841        37.30556         8.91153
     2016.53114         6.51305         6.73308
     2016.53388        35.11985         6.58190
     2016.53662        31.44987         7.19741
     2016.53936        23.71926        10.04424
     2016.54209        24.71858         8.87522
     2016.54483       -10.46208        14.17812
     2016.54757        11.93589        14.93137
     2016.55031        25.58808        12.92434
     2016.55305        41.68990        12.95335
     2016.55578        12.69435         8.82546
     2016.55852        26.75887         7.36292
     2016.56126        34.92034        10.27504
     2016.56400        14.95418        19.80112
     2016.56674        28.43769         7.36647
     2016.56947        31.39858         9.99797
     2016.57221        22.83093         6.69856
     2016.57495        35.31142        11.12520
     2016.57769        32.46933         6.27217
     2016.58042        28.14515        18.05545
     2016.58316        33.25621         6.73316
     2016.58590        16.17655        11.94103
     2016.58864        24.40336         6.98160
     2016.59138        21.94491        10.91287
     2016.59411        17.34522         7.30700
     2016.59685        39.68226         6.30557
     2016.59959        35.23710         9.29555
     2016.60233        39.48738         9.32194
     2016.60507         2.63320         8.67051
     2016.60780        13.99625         6.40443
     2016.61054        45.14620         8.84089
     2016.61328        28.45803         8.45998
     2016.61602        14.24510         9.80768
     2016.61875        37.29257         7.72372
     2016.62149        32.01123         7.72180
     2016.62423        38.01656         6.16698
     2016.62697        22.75462         6.88473
     2016.62971        25.67121         6.83210
     2016.63244        22.65235        10.63757
     2016.63518        29.74415         7.05321
     2016.63792        18.33666         8.30436
     2016.64066       -18.81832        13.43134
     2016.64339         5.19711        10.52840
     2016.64613        15.95546         6.73273
     2016.64887         6.26560         7.10086
     2016.65161        31.69711         9.94249
     2016.65435        23.52773         6.95772
     2016.65708        18.77939         9.64115
     2016.65982        12.37412        11.76082
     2016.66256        14.94261         8.66160
     2016.66530        24.85819         8.34350
     2016.66804        22.19722        10.88113
     2016.67077        23.53489        15.10776
     2016.67351        16.49161         8.93965
     2016.67625        12.69422        11.42612
     2016.67899        19.29246         9.47715
     2016.68172        36.96494         6.77514
     2016.68446         6.41414        11.64743
     2016.68720        11.49745        10.41892
     2016.68994        -7.57785        11.03563
     2016.69268        24.27819         8.83231
     2016.69541        25.11743         8.53722
     2016.69815        17.46891         8.11551
     2016.70089        18.29107         6.91576
     2016.70363        25.09281        12.10121
     2016.70637        26.24650        11.58931
     2016.70910        32.80863        11.19336
     2016.71184        26.39943         6.75307
     2016.71458        29.08172         7.79193
     2016.71732        67.61711        14.91208
     2016.72005        24.08701         6.61930
     2016.72279        31.68707         6.51381
     2016.72553       -33.86506        42.99636
     2016.73101        24.43933         6.72851
     2016.73374        23.56300         6.64531
     2016.73648        18.77343        15.37587
     2016.73922        -3.16228         8.95930
     2016.74196        32.86754        12.77576
     2016.74470        22.38249         6.57797
     2016.74743        51.87567         9.11379
     2016.75017        35.92013         6.98153
     2016.75291        33.26021         6.36196
     2016.75565        29.52834         7.32506
     2016.75838        21.84297         7.07001
     2016.76112        30.25198        13.49050
     2016.76386        29.67071         7.34166
     2016.76660         3.50124         8.11447
     2016.76934        30.57106         9.13519
     2016.77207        24.54747         6.76599
     2016.77481        27.29165         8.16905
     2016.77755        16.09437         6.33584
     2016.78029         9.58629         9.88034
     2016.78303        29.62636         7.75121
     2016.78576        20.82375         7.47449
     2016.78850        33.57664         6.92240
     2016.79124        26.60625         6.61226
     2016.79398        26.70067        21.30145
     2016.79945        42.18027        23.01412
     2016.80219        13.13485         6.98415
     2016.80493        10.61627         6.95018
     2016.80767        34.28004        12.64856
     2016.81040        32.23484         7.41189
     2016.81314        29.24166         7.80909
     2016.81588        -0.12465         7.15605
     2016.81862        24.86192        11.02760
     2016.82136         5.89949         6.70880
     2016.82409        10.83367         9.03043
     2016.82683        27.41735         8.38239
     2016.82957        13.71187         8.12411
     2016.83231        30.23611         8.11217
     2016.83504        20.89346         8.67860
     2016.83778         8.77617         6.38419
     2016.84052        33.01035        21.33839
     2016.84326         4.97363         7.27279
     2016.84600         3.83192         6.60676
     2016.84873        10.77391        11.19147
     2016.85147        17.67339         6.77925
     2016.85421       -10.34149        20.57281
     2016.85695        12.71987         7.01044
     2016.85969        28.59428         7.55533
     2016.86242        16.14648         6.44382
     2016.86516       -15.30090        20.39447
     2016.86790         8.25637         7.88357
     2016.87064        10.07039         8.98345
     2016.87337       -41.60359        40.86810
     2016.87611        23.55541         6.46877
     2016.87885        18.67344        10.12558
     2016.88159        15.59310         7.27059
     2016.88433        13.98201         6.93769
     2016.88706         0.47435         9.09992
     2016.88980        37.70496        11.26949
     2016.89254        17.56843         6.66707
     2016.89528        12.89229         8.18838
     2016.89802         8.19752        11.52387
     2016.90075        13.01499         6.76341
     2016.90349         6.04750        10.17844
     2016.90897        32.70798         6.92060
     2016.91170        27.28077         7.81676
     2016.91444         7.81212        12.06829
     2016.91718        24.48438         8.77006
     2016.91992         4.11892         8.31544
     2016.92266        12.05207        11.16403
     2016.92539        29.89162         8.18427
     2016.92813        18.79935         7.69349
     2016.93087        27.44941         9.00342
     2016.93361        18.15874         6.29285
     2016.93634        35.06259         6.60894
     2016.93908        48.51837        10.95748
     2016.94182        14.34660         7.58457
     2016.94456        18.64755         9.98880
     2016.94730        28.77371         6.82197
     2016.95003        24.24717         9.58311
     2016.95551        23.17650         6.39099
     2016.95825        28.63114         7.21710
     2016.96099        21.96308         6.53262
     2016.96372        20.77037         6.93615
     2016.96646        29.28201         6.74376
     2016.96920        51.27659        24.27349
     2016.97194        43.22160        15.24495
     2016.97467        22.51560         6.67573
     2016.97741        15.44917         7.34082
     2017.05133         2.14808        37.51728
     2017.05407        33.35739         6.52683
     2017.05681        31.79083         9.43642
     2017.05955         4.48504         8.41313
     2017.06229        10.15126         7.09687
     2017.06502        12.73575         7.04165
     2017.06776        23.91253         8.00386
     2017.07050        24.52731         7.22744
     2017.07324        34.77194         8.66845
     2017.07598        21.76883         7.51401
     2017.07871        33.14320         8.43706
     2017.08145        17.85622         7.86364
     2017.08419         0.71241         8.22864
     2017.08693        23.93247         8.39969
     2017.08966        16.93908         6.42070
     2017.09240        20.66475         7.64562
     2017.09514        10.60436         9.68614
     2017.09788        16.79956         7.92043
     2017.10062        -2.39199         6.69532
     2017.10335        15.06090         6.88661
     2017.10609         7.21755         6.35300
     2017.10883        16.25641         6.00745
     2017.11157         6.14863         8.69724
     2017.11431         2.23922         6.69162
     2017.11704        10.53031         6.60004
     2017.11978        20.87991         8.71251
     2017.12252        16.20462         7.62723
     2017.12526         8.06021         6.20048
     2017.12799        10.12262        10.27098
     2017.13073        28.53489         8.55632
     2017.13347        21.48022         7.00788
     2017.13621        29.77910        13.94865
     2017.13895        -2.62016         9.93431
     2017.14168        10.04639         7.22270
     2017.14442        12.50305         6.29724
     2017.14716        25.12025         7.09424
     2017.14990        13.08316         6.55041
     2017.15264        26.41786         6.75961
     2017.15537        18.77228         6.95295
     2017.15811        21.63514        11.08238
     2017.16085        30.01280         6.35582
     2017.16359        20.83182         7.83825
     2017.16632        18.93460         8.41827
     2017.16906         2.62804         7.61294
     2017.17180        24.50846         6.24211
     2017.17454        27.52538         7.52743
     2017.17728        25.40729        11.43245
     2017.18001        18.48614         7.43439
     2017.18275        20.10142         7.57357
     2017.18549        11.26713         7.71794
     2017.18823        11.36311         8.64039
     2017.19097        24.68351         6.42208
     2017.19370        27.21860         7.61665
     2017.19644        24.96588         6.48383
     2017.19918        30.81361         9.62745
     2017.20192        23.89414         7.46146
     2017.20465        12.66697         7.54776
     2017.20739        24.05967        40.17386
     2017.21013        23.98862        11.51112
     2017.21287         7.44225         5.98914
     2017.21561        26.56015         6.28884
     2017.21834        20.38372         6.13598
     2017.22108        18.46863         7.16250
     2017.22382        18.37277         6.53633
     2017.22656        16.67425         7.32857
     2017.22930         8.55513         7.49667
     2017.23203         5.57403         8.20214
     2017.23477         9.52881         9.33144
     2017.23751        10.63782         6.67476
     2017.24025        10.91271         6.70385
     2017.24298        28.84808         8.01151
     2017.24572         5.74936         6.92974
     2017.24846        15.20352         6.21248
     2017.25120        15.46320         6.38392
     2017.25394         9.92373         6.94429
     2017.25667        22.51079         8.57669
     2017.25941        -2.57913         6.91602
     2017.26215        26.86492         7.66634
     2017.26489        24.21914         6.80072
     2017.26762        27.13466         6.53645
     2017.27036        10.81640         6.47364
     2017.27310        16.18548         7.00142
     2017.27584        18.45728         7.85919
     2017.27858         4.52951         6.66838
     2017.28131        25.06249         6.46182
     2017.28405         7.80003         6.53836
     2017.28679        -0.83300         6.30137
     2017.28953         9.51692         6.81718
     2017.29227        23.87855        12.93809
     2017.29500        19.32120         7.64796
     2017.29774        11.05179         6.35216
     2017.30048        -5.98516         6.31898
     2017.30322        16.14237         7.05489
     2017.30595        14.70569         9.25162
     2017.30869        23.59067         7.77986
     2017.31143         7.57253         7.84035
     2017.31417        13.13055         9.11407
     2017.31691        16.52001         6.74916
     2017.31964         2.81328         7.37582
     2017.32238        16.79499         8.45205
     2017.32512        14.92579         6.95221
     2017.32786         1.82491         6.56223
     2017.33060        15.15793         6.02260
     2017.33333        20.03880         6.77420
     2017.33607        13.45102         6.53657
     2017.33881         8.78068         9.38778
     2017.34155        14.30374         6.72358
     2017.34428        25.13421         9.30422
     2017.34702        22.10325        10.57164
     2017.34976        13.60235         6.18348
     2017.35250        17.61765         7.01841
     2017.35524         7.17772         7.41594
     2017.35797         8.52089         6.75269
     2017.36071        19.08992         7.63489
     2017.36345        23.57080         6.23081
     2017.36619        19.87922         6.42563
     2017.36893         2.84829         7.25841
     2017.37166        18.83094         6.27735
     2017.37440        22.70930         6.57569
     2017.37714        -0.64663         8.24321
     2017.37988        20.63569         6.62014
     2017.38261        12.70732         7.03876
     2017.38535        15.80759         7.27003
     2017.38809         8.29593         7.16540
     2017.39083        37.74445         7.66842
     2017.39357        22.80060         6.94604
     2017.39630        10.25368         6.52795
     2017.39904        11.65898         7.37593
     2017.40178         8.78484         6.92807
     2017.40452        27.48359         7.81816
     2017.40726        32.46525         6.90971
     2017.40999        32.42341         6.68918
     2017.41273        13.87821         7.54223
     2017.41547         4.01893         7.83419
     2017.41821        17.58907         6.20768
     2017.42094        33.17113         7.79002
     2017.42368        29.68865         8.24252
     2017.42642         8.06967         6.13917
     2017.42916        20.32142         8.56164
     2017.43190        17.84634         8.04499
     2017.43463        23.20574         6.88183
     2017.43737        14.74139         6.55087
     2017.44011        26.39651         7.04653
     2017.44285         5.57040         6.18073
     2017.44559        22.18307         6.68804
     2017.44832        18.90035         7.79609
     2017.45106        20.60151         6.55826
     2017.45380        30.27849         8.25939
     2017.45654        10.44337         9.06476
     2017.45927        26.44480         8.32489
