# ================= DQRFIT RESULTS ================
# INPUT FILE: series/RYMD.rad
# OUTPUT: CLEANED_DATA
# FILTER FUNCTION: f(t)
# f(t)=+line(t)+annual(t)
# line(t)=+P 1+P 2*t
# annual(t)=+P 3*sin(2*pi*t+P 4)
# heav(t)=(t<0?0:1)
# TOTAL OBSERVATIONS MTOT= 3375
# INITIAL TIME INTERVAL= 2017.4593 - 2007.9973 =  9.4620
# TOTAL OBSERVATIONS AFTER PREFILTER M= 3361
# TIME-SPAN= 2017.4593 - 2007.9973 =  9.4620
# OBSERVATIONS: USED M=  3361 REJECTED MTOT-M=    14 %USED=   99.5852
# N=  4 PARAMETERS
# MAXSIG= 175.00000
# MAXRES=  40.78508
# SCALE FACTOR FOR LENGTHS: SCL=  10.00000
# SCALE FACTOR FOR SIGMAS: SCLSIG=   1.00000
# CHI^2=   5175.745 DOF=  3357 CHI^2/DOF=   1.54178
# RMS=      7.462 SDEV=      7.408 MEAN=   -0.90606
#  P #       PARAMETER +-    SIGMA %error PARAMETER NAME
# P 1 =      -176.56605 +-   71.254  40.36 YZERO                              
# P 2 =         0.08789 +-    0.035  40.26 SLOPE                              
# P 3 =         5.34780 +-    0.156   2.91 ANNUAL AMPLITUDE                   
# P 4 =        -2.71878 +-    0.038   1.39 ANNUAL PHASE                       
#       T             B_CLEANED       RE-SCALED_SIG_OBS
     2007.99726        -5.39321         5.97354
     2008.00000         4.86704         6.09093
     2008.00274         8.06673         4.13562
     2008.00548         0.01367         4.06040
     2008.00821         7.04574         4.02618
     2008.01095         5.43986         4.07133
     2008.01369        -1.75586         4.02403
     2008.01643         0.20787         4.07679
     2008.01916        -5.32299         4.08570
     2008.02190        -3.90741         4.09391
     2008.02464        -8.58466         4.19268
     2008.02738        -3.09402         4.12551
     2008.03012        -6.90726         4.20133
     2008.03285       -11.08146         4.04065
     2008.03559        -0.70896         7.12285
     2008.03833        -7.62780         4.00583
     2008.04107        -5.33409         4.14142
     2008.04381        -3.72257         4.21527
     2008.04654        -2.36915         4.17025
     2008.04928        -8.96316         4.03092
     2008.05202        -7.14964         4.03921
     2008.05476        -3.68076         4.01037
     2008.05749        -3.36514         4.04200
     2008.06023         3.00278         4.06677
     2008.06297         4.73825         4.02377
     2008.09582       -13.43506         5.33694
     2008.09856        -5.39962         4.22299
     2008.10130        -9.29923         4.14360
     2008.10404        -5.90194         6.58716
     2008.10678       -12.10615         4.00621
     2008.10951       -10.32884         4.01503
     2008.11225       -10.84689         4.04252
     2008.12868        -1.40158         6.81623
     2008.13142        -0.19818         4.01850
     2008.13415         2.18359         4.03973
     2008.13689        -2.46336         3.98972
     2008.13963        -1.86571         4.14877
     2008.14237         2.14796         4.03377
     2008.14511        -1.66980         4.05695
     2008.14784         2.53576         4.04216
     2008.15058        -6.41406         4.00666
     2008.15332       -10.42462         4.01532
     2008.15606         2.89228         6.43144
     2008.15880        -8.67930         4.01959
     2008.16153         1.45459         4.01319
     2008.16427        -5.90167         3.97384
     2008.16701       -12.13750         3.99567
     2008.16975        -9.34436         6.44983
     2008.17248        -3.80173         3.96394
     2008.17522        -5.28945         3.95867
     2008.17796       -10.84005         3.97540
     2008.18070         2.05576         3.98500
     2008.18344        -3.27739         3.96562
     2008.18617        -2.62926         4.03744
     2008.18891         0.61014         3.98729
     2008.19165         2.01295         3.94754
     2008.19439        -1.60089         3.96575
     2008.19713        -2.05718         4.93530
     2008.19986        -4.77313         4.07305
     2008.20260        -8.37661         3.99007
     2008.20534        -1.66159         3.95206
     2008.20808        -1.07922         4.13449
     2008.21081        -3.56772         4.23508
     2008.21355        -3.18685         4.34097
     2008.21629         2.25798         4.07845
     2008.21903        -0.14199         4.05634
     2008.22177        -7.42883         4.00521
     2008.22450        -2.58608         4.14918
     2008.22724        -4.06510         4.07929
     2008.22998        -0.78778         4.08353
     2008.23272        -5.10253         4.27739
     2008.23546       -20.06200         6.41624
     2008.23819        -0.54485         4.10849
     2008.24093        -2.91730         4.02429
     2008.24367       -11.43995         4.00047
     2008.24641       -10.94724         4.57716
     2008.24914        -2.50623         4.13117
     2008.25188         0.03631         4.10278
     2008.25462        -3.63175         4.01782
     2008.25736        -2.88110         5.01953
     2008.26010        -1.20331         4.02755
     2008.26283        -6.19923         4.05700
     2008.26557        -4.10403         4.04845
     2008.26831        -4.96549         4.07727
     2008.27105        -2.88630         4.16074
     2008.27379        -2.49442         4.11054
     2008.27652        -5.14675         4.13297
     2008.27926        -3.61868         4.13696
     2008.28200         3.33716         4.05463
     2008.28474         2.38070         4.05120
     2008.28747         3.53802         4.15369
     2008.29021         6.45121         4.18895
     2008.29295         1.82558         5.51074
     2008.29569        -1.69527         4.06689
     2008.29843        -2.32842         4.08295
     2008.30116        -3.35426         4.18517
     2008.30390        -3.21856         4.07059
     2008.30664        -5.48922         4.27525
     2008.30938        -2.00894         4.50773
     2008.31211        -7.75641         4.56825
     2008.31485        -3.33599         4.07835
     2008.31759       -10.10523         4.14770
     2008.32033       -10.65657         4.19291
     2008.32307        -1.99477         4.11750
     2008.32580        -4.02735         4.33732
     2008.32854         2.51855         4.16340
     2008.33128        -1.98894         4.19873
     2008.33402         0.68372         4.06593
     2008.33676        -2.24607         4.12955
     2008.33949        -2.07284         4.25222
     2008.34223        -3.42316         4.04666
     2008.34497         2.48959         4.15599
     2008.34771         5.39983         4.04438
     2008.35044         2.24362         4.15396
     2008.35318         0.67752         4.17350
     2008.35592         0.83639         4.00038
     2008.35866         0.01527         4.00644
     2008.36140         8.93537         4.84874
     2008.36413         2.10691         4.13452
     2008.36687         1.15940         4.09129
     2008.36961         3.81099         3.99811
     2008.37235        -0.80640         4.00748
     2008.37509         7.05927         5.77300
     2008.37782         9.83628         4.11307
     2008.38056         1.17571         4.15318
     2008.38330         4.28850         4.13814
     2008.38604        -1.40312         3.99174
     2008.38877         4.26413         4.13271
     2008.39151         2.90821         4.24572
     2008.39425         1.08742         4.01297
     2008.39699         6.77650         4.00711
     2008.39973         7.39695         4.09726
     2008.40246         3.00589         4.51185
     2008.40520         3.98667         4.18773
     2008.40794         4.15645         4.12197
     2008.41068         2.02423         4.06650
     2008.41342        -0.87614         4.02754
     2008.41615         3.88620         3.98253
     2008.41889         4.91337         4.04617
     2008.42163         0.99219         4.10141
     2008.42437         3.06008         4.66548
     2008.42710        -1.68113         4.08357
     2008.42984         5.33988         4.09038
     2008.43258         2.17890         4.19831
     2008.43532         0.78959         4.16819
     2008.43806        -0.20992         4.13655
     2008.44079        -0.15081         4.05119
     2008.44353        -0.72973         4.15402
     2008.44627        -1.50043         4.12029
     2008.44901        -0.44968         4.03522
     2008.45175        -2.72365         4.13459
     2008.45448        -4.46536         4.12624
     2008.45722        -1.17096         4.04714
     2008.45996        -2.09334         4.06102
     2008.46270        -3.02986         4.34368
     2008.46543         1.01053         4.29323
     2008.46817        -2.63040         3.98642
     2008.47091        -7.35590         4.01414
     2008.47365         1.47759         4.13082
     2008.47639        -2.74326         4.02864
     2008.47912        -1.38827         4.01242
     2008.48186        -0.35898         4.04982
     2008.48460         1.46666         4.16698
     2008.48734        -2.20944         4.08137
     2008.49008        -0.11184         4.19281
     2008.49281        -1.66372         3.98514
     2008.49555         0.59808         3.98195
     2008.49829         1.36919         4.11116
     2008.50103         1.01912         4.15949
     2008.50376         6.79290         4.01792
     2008.50650         7.67135         3.99766
     2008.50924         3.26306         3.94068
     2008.51198         3.56106         3.99425
     2008.51472        -2.09792         4.03636
     2008.51745         0.55028         4.08139
     2008.52019         6.02201         3.99593
     2008.52293        10.30362         4.16073
     2008.52567         6.42905         4.32564
     2008.52841        -0.37474         4.03661
     2008.53114         5.91349         4.07596
     2008.53388        11.37418         4.15025
     2008.53662         4.97156         4.16353
     2008.53936         6.04139         4.28655
     2008.54209         6.90478         4.26761
     2008.54483         6.97182         4.22539
     2008.54757        10.93518         4.12850
     2008.55031         7.53517         4.01045
     2008.55305        10.51571         4.00239
     2008.55578         4.30585         3.99808
     2008.55852         2.84610         4.04337
     2008.56126         2.47594         4.43888
     2008.56400        10.27565         4.03501
     2008.56674         1.19458         4.03228
     2008.56947         4.08339         3.99790
     2008.57221         7.33415         4.24455
     2008.57495         2.37628         4.20084
     2008.57769        -1.22622         4.32278
     2008.58042         8.62711         4.06504
     2008.58316        11.47708         4.01081
     2008.58590         4.64862         4.01523
     2008.58864         1.84337         4.13121
     2008.59138         9.49707         5.07696
     2008.59411         5.35380         3.99627
     2008.59685         6.13655         4.11064
     2008.59959        15.62176         4.21496
     2008.60233         5.97407         4.30334
     2008.60507         5.01617         4.12840
     2008.60780         6.75833         4.05483
     2008.61054         7.73023         4.45345
     2008.61328         3.94111         8.36343
     2008.61602        14.13501         7.77529
     2008.61875         7.62679         8.24575
     2008.62149         1.10752        11.22613
     2008.62423        11.34268         8.58353
     2008.62697         5.91426         8.54592
     2008.62971         2.77888         9.47269
     2008.63244        16.29144         8.51416
     2008.63518        -5.42069         8.11934
     2008.63792         2.25395         8.91061
     2008.64066         3.29765         7.99805
     2008.64339        19.89080         8.22989
     2008.64613        -1.78583         7.92384
     2008.64887         4.36639         7.65583
     2008.65161         6.13226         9.33908
     2008.65435         6.01711         8.29453
     2008.65708        -2.99363         7.96061
     2008.65982         4.15124         7.93512
     2008.66256         6.22526         8.05819
     2008.66530         9.49140         8.59310
     2008.66804         3.53424        10.17712
     2008.67077        -7.50919         8.05318
     2008.67351         0.26057         8.72548
     2008.67625        -5.49799         8.66838
     2008.67899         2.95242         9.29863
     2008.68172        10.01049         8.67096
     2008.68446         5.59049         8.57775
     2008.68720        14.21074         8.15916
     2008.68994         1.74956        10.11696
     2008.69268        -1.64093         8.79910
     2008.69541        -3.90575         9.12026
     2008.69815         1.39782         8.36321
     2008.70089        10.83529         8.86223
     2008.70363         7.77157         7.63579
     2008.70637         9.22776         8.30377
     2008.70910         3.47442         8.36627
     2008.71184         9.44700         8.09359
     2008.71458        -7.17663         8.54493
     2008.71732        13.73248         8.84139
     2008.72005        -4.79522         9.00790
     2008.72279        -4.63632         9.24860
     2008.72553        -8.11846         8.48058
     2008.72827        10.13051         8.31332
     2008.73101        -1.52515         9.23201
     2008.73374        13.06047         9.23149
     2008.73648         2.89033         8.44226
     2008.73922        18.02581         8.32329
     2008.74196         0.04248         8.51135
     2008.74470        -0.51915         8.97224
     2008.74743         4.53584         7.64444
     2008.75017        22.19914         8.80929
     2008.75291        15.18800         9.46218
     2008.75565         2.10411         9.03458
     2008.75838         7.21037        13.48422
     2008.76112       -10.93703         9.64451
     2008.76386         7.65076         9.48870
     2008.76660        13.29101        13.10184
     2008.76934        -9.11323        11.31202
     2008.77207        -3.33121         8.56285
     2008.77481        -2.84470         8.92979
     2008.77755       -10.74419         8.90631
     2008.78029         6.58852         9.55369
     2008.78303         9.27474         9.03202
     2008.78576         4.17525         8.88527
     2008.78850        -5.14914         8.43750
     2008.79124         7.63602         7.94353
     2008.79398         4.38957         8.42756
     2008.79671       -11.50853         9.48887
     2008.79945        -7.30404        19.72287
     2008.80219       -15.02610         7.87091
     2008.80493         4.51567         8.35494
     2008.80767        -0.31732         8.64761
     2008.81040        15.78545         8.72695
     2008.81314        -8.13584         9.76497
     2008.81588        21.20333         8.03036
     2008.81862         0.91972         8.45095
     2008.82136         7.76112         8.42234
     2008.82409         0.11283         9.22314
     2008.82683         9.38817         8.10358
     2008.82957        -5.04990         8.70996
     2008.83231        18.04931         7.95827
     2008.83504        19.34587         8.03686
     2008.83778         7.94149         9.14203
     2008.84052        -0.63447         7.89563
     2008.84326        -1.20118         9.06495
     2008.84600        15.14915         9.68430
     2008.84873         0.03468         8.60724
     2008.85147         0.17390         8.84786
     2008.85421       -12.18339         8.38430
     2008.85695         7.90612         7.82807
     2008.85969        15.42868         8.09653
     2008.86242        -4.60868         7.65002
     2008.86516        -2.00968         8.14239
     2008.86790        -1.74442         8.77799
     2008.87064         8.28053         7.97003
     2008.87337         2.27563         8.14626
     2008.87611        -1.95587         8.93274
     2008.87885       -14.92095        11.45486
     2008.88159         5.78301         8.33677
     2008.88433       -14.39960         8.37868
     2008.88706        20.52291         9.30411
     2008.88980         0.43442        10.12805
     2008.89254        -4.57838        11.29832
     2008.89528        -7.10093         9.96443
     2008.89802         5.15458         9.39135
     2008.90075         1.83120         9.36183
     2008.90349        -3.89162         8.66163
     2008.90897         6.16880        10.15669
     2008.91170        11.83845         9.50577
     2008.91444         2.96572         9.00069
     2008.91718        13.47034         8.13731
     2008.91992        15.72661         9.39797
     2008.92266        11.63606         8.84252
     2008.92539        -1.78562         8.61469
     2008.92813        -2.98830         9.52137
     2008.93087         6.72888        13.57271
     2008.93361       -15.08122         8.47868
     2008.93634        -7.64866         8.78527
     2008.93908       -16.78680        11.12064
     2008.94182         1.57484        10.46911
     2008.94456        -2.74290         9.83053
     2008.94730        -2.16725         8.35120
     2008.95003         4.75598         8.54573
     2008.95277         0.61947         8.61991
     2008.95551         0.24851         8.13392
     2008.95825         4.93439         8.73673
     2008.96099        -5.90052         8.51947
     2008.96372        -1.99902         8.40633
     2008.96646        -6.23054         7.72426
     2008.96920        -9.26811         8.45254
     2008.97194        -9.10067         8.30547
     2008.97467        -5.76372         8.40583
     2008.97741         0.55198         9.10974
     2008.98015        -5.74895         8.26151
     2008.98289       -12.20213         8.34732
     2008.98563        -6.39626         8.77352
     2008.98836       -14.84343        30.43562
     2008.99110        -9.86525         8.50573
     2008.99384         3.72138         9.49652
     2008.99658         3.83588         8.37491
     2008.99932        10.76060         8.43992
     2009.00205         5.11317         8.89041
     2009.00479       -10.56817         8.42809
     2009.00753       -13.68053         8.96814
     2009.01027        -5.11012         8.76327
     2009.01300         6.14829         7.96368
     2009.01574         5.70621         7.85668
     2009.01848        -0.31879         8.31011
     2009.02122        -9.91695         8.41834
     2009.02396        -0.09044         7.85376
     2009.02669        -7.08641         8.28942
     2009.02943       -13.30470         8.15966
     2009.03217         4.92546         7.31583
     2009.03491        -8.80883         7.97144
     2009.03765        -1.06842         7.89747
     2009.04038       -17.32778         8.03469
     2009.04312        -6.01653         8.21358
     2009.04586       -14.73135         8.33555
     2009.04860        -4.91380         8.51919
     2009.05133       -11.01787         8.13035
     2009.05407        -3.58689         8.69942
     2009.05681        -5.19253         8.46360
     2009.05955        -2.61208         8.73991
     2009.06229       -10.91321         7.80622
     2009.06502        -5.56550         8.40196
     2009.06776        -6.07438         8.20890
     2009.07050       -10.17143         8.81882
     2009.07324         2.02040         7.65307
     2009.07598        -7.19671         8.59015
     2009.07871        -4.75892         8.26360
     2009.08145        -9.87190        10.52239
     2009.08693        -9.96695         8.06613
     2009.08966       -16.40770         8.19504
     2009.09240       -13.03365         8.30326
     2009.09514       -18.44212         7.99057
     2009.09788        -8.83805         8.25032
     2009.10062         0.34981         7.78798
     2009.10335        -0.58904         8.08734
     2009.10609        -8.52515         8.15046
     2009.10883       -12.09967         8.34801
     2009.11157       -14.47228         7.82192
     2009.11431        -4.34975         7.87151
     2009.11704        -2.79120         9.77492
     2009.11978         0.26698         8.56735
     2009.12252        -4.96160         8.26517
     2009.12526       -10.60055         7.77786
     2009.12799         0.20633         8.49903
     2009.13073       -15.61681         8.94837
     2009.13347        -6.27675         8.27151
     2009.13621       -13.16109         9.09053
     2009.13895       -10.00975         8.82915
     2009.14168       -21.30198         8.33789
     2009.14442        -4.27776         8.01188
     2009.14716         6.71019         8.21519
     2009.14990       -15.19960         8.95247
     2009.15264       -10.98381         8.51518
     2009.15537       -20.17249        10.27390
     2009.15811       -14.97772        10.60853
     2009.16632       -13.66741         9.21213
     2009.16906         5.37483        18.86022
     2009.17180        -5.27970         8.34845
     2009.17454       -20.27471         8.56769
     2009.17728       -13.49753         9.75202
     2009.18001       -16.22374         8.43397
     2009.18275       -11.21091         8.86351
     2009.18549        -8.99441         7.70220
     2009.18823        -5.99602         8.41486
     2009.19097        -7.24815         8.03008
     2009.19370        -3.36956         8.17711
     2009.19644       -10.42383         8.73954
     2009.19918         5.63724        10.02475
     2009.20465         4.60763         7.76925
     2009.20739        -5.86016         9.03644
     2009.21013       -15.20836         8.04612
     2009.21287        -4.53870         8.76696
     2009.21561       -19.15538         9.04831
     2009.21834       -10.37807         8.16853
     2009.22108         6.66737        16.42291
     2009.22382       -12.69920         8.48745
     2009.22656        -4.41541         8.51815
     2009.22930       -20.01825         9.24028
     2009.23203        -1.35155        10.25311
     2009.23477       -21.56255        27.66909
     2009.23751        -9.81297         8.23381
     2009.24025        -7.00266         7.94686
     2009.24298        -6.37751         7.92564
     2009.24572        -2.44538         8.26175
     2009.24846       -10.02205         7.56882
     2009.25120       -17.20740         7.48669
     2009.25394       -13.65365         7.85951
     2009.25667        -8.93409         7.89087
     2009.25941       -10.55677         7.37650
     2009.26215       -14.39196         7.66276
     2009.26489        -6.69845         7.80046
     2009.26762       -14.72034         7.87002
     2009.27036        -4.86495         9.02018
     2009.27310        -8.98583         8.68928
     2009.27584        -4.87753         7.68804
     2009.27858       -20.87170         8.81663
     2009.28131       -12.92551         9.03540
     2009.28405       -13.96974         8.72974
     2009.28679        -3.00452         8.36934
     2009.28953       -19.69718         7.84292
     2009.29227         0.60702         8.22032
     2009.29500       -21.24671        11.64768
     2009.29774       -19.20028         9.93463
     2009.30048        -8.96788         8.94061
     2009.30322        -3.83448         7.54219
     2009.30595         5.05179         7.95508
     2009.30869         0.93546         8.31215
     2009.31143        -4.97617         7.76698
     2009.31417        -9.36470         7.85105
     2009.31691       -15.58391         9.32747
     2009.31964        -4.29920         8.15610
     2009.32238        -9.46192         8.62938
     2009.32512       -19.66715         9.03583
     2009.32786       -11.04521         9.34970
     2009.33060        -3.83480         8.20193
     2009.33333         3.12412         8.93579
     2009.33607         3.01750         9.27184
     2009.33881         9.23631         8.23929
     2009.34155        -5.06004         8.17183
     2009.34428       -13.25510         7.63201
     2009.34702       -13.09697         7.85653
     2009.34976       -12.22654         7.79627
     2009.35250       -11.16906         7.52844
     2009.35524        -0.51342         9.13205
     2009.35797        -8.49671         8.30449
     2009.36071        -5.75408         7.85689
     2009.36345       -10.46524         7.95463
     2009.36619        -7.94988         9.10775
     2009.36893        -7.45575         8.54332
     2009.37166        -8.90766         8.61762
     2009.37440        -8.39498         8.67438
     2009.37714        -6.55646         8.62878
     2009.37988        -8.88931         9.36717
     2009.38261       -11.20627         8.54747
     2009.38535        -7.34614         8.68826
     2009.38809       -10.97973         7.89201
     2009.39083       -12.13835         7.34037
     2009.39357       -12.18318         8.08587
     2009.39630       -17.70779        11.33257
     2009.39904        -5.33478         8.39278
     2009.40178       -15.00401         8.27932
     2009.40452         4.65858         8.34816
     2009.40726         3.79938         8.51289
     2009.40999        -7.96436         9.66277
     2009.41273        -7.35671         8.59250
     2009.41547        -8.86653         8.37511
     2009.41821        -4.84524         9.02033
     2009.42094       -23.40341         8.65398
     2009.42368       -14.49430         8.84920
     2009.42642       -13.74839         7.67111
     2009.42916        -9.62896         9.77094
     2009.43190        -3.41032         8.53997
     2009.43463        -5.15565         8.10421
     2009.43737       -13.71097         8.26957
     2009.44011         7.91160         8.35408
     2009.44285        -4.68647         7.65723
     2009.44559        -6.60134         7.36729
     2009.44832         0.62567         7.06493
     2009.45106        -3.36746         8.14552
     2009.45380        -9.65154         8.27110
     2009.45654       -16.05414         7.29668
     2009.45927       -17.65925         7.41853
     2009.46201       -15.84603         8.09916
     2009.46475       -14.20555         7.96247
     2009.46749       -23.09670         9.20558
     2009.47023         5.38961         8.55034
     2009.47296         2.84382         8.26653
     2009.47570       -14.13587         8.10996
     2009.47844         9.04857         8.06645
     2009.48118        -2.87360         7.40907
     2009.48392        -1.67590         7.75184
     2009.48665        -3.33333         9.94134
     2009.48939        -7.48065        15.71474
     2009.49213       -10.17733         8.67881
     2009.49487       -10.59960         7.84741
     2009.49760        -2.76875         7.70975
     2009.50034        -6.88418         8.26037
     2009.50308       -12.11958         9.67282
     2009.50582        -4.11648         8.23599
     2009.50856         1.12478         7.36847
     2009.51129         3.32478         7.47214
     2009.51403       -10.73822         7.88242
     2009.51677       -10.88213         7.92550
     2009.51951       -10.01002         7.81561
     2009.52225       -11.01851         7.18693
     2009.52498        -6.37315         7.95284
     2009.52772        -0.31338         8.06860
     2009.53046        -3.16027        10.19542
     2009.53320       -19.76870        12.13187
     2009.53593         0.50384         8.61865
     2009.53867        -3.76080        13.25097
     2009.54141         1.36875         8.52445
     2009.54415       -12.14553         7.92210
     2009.54689         6.45858        12.23825
     2009.54962        -4.23019         8.99966
     2009.55236         1.56905         8.95103
     2009.55510         2.42446         9.61891
     2009.55784         3.76919         7.85252
     2009.56057       -10.49144         7.81302
     2009.56331        -8.38534         8.88813
     2009.56605       -14.68264         8.31727
     2009.56879        -4.59161         7.66432
     2009.57153       -12.46726         9.52038
     2009.57426        -4.17484         8.57998
     2009.57700         8.31118         8.65741
     2009.57974        -0.51907         7.43192
     2009.58248        -4.52485         7.86061
     2009.58522       -12.38137         7.90311
     2009.58795         4.85002         9.30304
     2009.59069         9.40566         8.25888
     2009.59343        -3.80010         7.42128
     2009.59617         4.84736         7.75956
     2009.59890        -9.70963         8.88138
     2009.60164        -0.24950         8.41989
     2009.60438        -5.30641         8.47813
     2009.60712        -5.44224         7.24130
     2009.60986        -5.54335         8.68938
     2009.61259         3.97761         8.93164
     2009.61533        -7.15349        13.74176
     2009.61807        -8.90798         7.68259
     2009.62081        -5.17035         8.06856
     2009.62355        -6.46418         7.86994
     2009.62628         5.31009         8.93540
     2009.62902        20.31929         8.80702
     2009.63176         8.07919         8.26288
     2009.63450        -7.23118         9.58886
     2009.63723        12.55070         8.38473
     2009.63997        -3.96680         8.98996
     2009.64271         7.01400         9.24072
     2009.64545        -9.95834         8.94957
     2009.64819        20.33848         9.24333
     2009.65092        -3.99512         9.02392
     2009.65366         4.99150         8.07792
     2009.65640         0.51842         8.40415
     2009.65914        -6.99670         9.25198
     2009.66188        -1.57545         7.56398
     2009.66461         4.21036         7.20250
     2009.66735         9.40615         7.34879
     2009.67009         3.92631         9.60605
     2009.67283        -3.07177         9.15445
     2009.67556         4.40195        10.44721
     2009.67830         3.54685         9.11162
     2009.68104         7.20822         9.35651
     2009.68378        -2.12630         9.20829
     2009.68652        -4.73930         8.90600
     2009.68925         1.59869         9.72345
     2009.69199        -4.57560         8.17768
     2009.69473         9.67406         8.80004
     2009.69747        -5.19359         8.84322
     2009.70021        -2.67193        15.58314
     2009.70294         8.24888         7.69950
     2009.70568        14.53196         8.62584
     2009.70842        11.98454         8.74054
     2009.71116         5.00084         8.30921
     2009.71389         2.79352         7.06453
     2009.71663       -15.99857         7.57403
     2009.71937        -3.21167         7.99995
     2009.72211       -13.99185         8.07189
     2009.72485         9.30814         7.75737
     2009.72758        -0.31204         8.35347
     2009.73032        -9.25367         8.05364
     2009.73306         2.14296         7.40444
     2009.73580        10.78802         7.74393
     2009.73854         0.90426         8.34692
     2009.74127        14.88618         7.76900
     2009.74401         5.62200         8.32430
     2009.74675         5.44885         8.02976
     2009.74949         9.55772         8.62424
     2009.75222        -2.89539         8.24116
     2009.75496        -6.65794         8.35908
     2009.75770        -0.40739         9.92835
     2009.76044        -2.18972         7.96931
     2009.76318         3.50684         7.83501
     2009.76591        -0.56504         7.83024
     2009.76865        -6.84937         8.70019
     2009.77139         8.22890         7.81293
     2009.77413        -0.16455         7.76655
     2009.77687        -3.04375         7.74847
     2009.77960        11.14423         9.59572
     2009.78234         5.39112         7.50631
     2009.78508         8.45685         7.96954
     2009.78782        12.41146         7.21280
     2009.79055        -7.32427         7.67228
     2009.79329        -9.13993         6.76771
     2009.79603        -6.33227         6.93778
     2009.79877        -2.63896         7.74081
     2009.80151        12.35424         7.00737
     2009.80424         4.23237         7.14236
     2009.80698         4.40103         7.38147
     2009.80972       -14.35814         7.12535
     2009.81246        -3.64892         7.49379
     2009.81520         5.46271         7.40721
     2009.81793        -3.22921         7.79998
     2009.82067        -1.70812         6.65036
     2009.82341        -5.52662         7.55117
     2009.82615        13.59158         7.45204
     2009.82888        15.41786        10.91450
     2009.83162        18.18727         7.65782
     2009.83436        -9.37005         8.33004
     2009.83710       -12.05834         7.67935
     2009.83984        -8.11514         8.16747
     2009.84257        -2.29089         7.97934
     2009.84531        -0.21316         8.26260
     2009.84805        -6.38877         8.21020
     2009.85079       -10.41953         7.48537
     2009.85352         5.37909         7.75521
     2009.85626        14.00149         7.36399
     2009.85900        -2.12238         7.87882
     2009.86174         4.11448         7.54882
     2009.86448         4.01348         8.08584
     2009.86721        -3.03590         7.71481
     2009.86995        -3.85026         8.14740
     2009.87269        13.76826         8.31232
     2009.87543        10.93253         7.96790
     2009.87817        -2.88208         8.10791
     2009.88090         8.36713         7.84475
     2009.88364        -1.25914        10.68543
     2009.88638        -5.23099         7.75740
     2009.88912        -0.33012         7.52925
     2009.89185        -9.68921         7.40370
     2009.89459         3.06062         8.25418
     2009.89733       -18.41644         7.71285
     2009.90007         5.17580         8.79390
     2009.90281        -7.38864         7.56212
     2009.90554         0.02434         7.97865
     2009.90828       -17.79168         8.39856
     2009.91102        -5.93441         8.24801
     2009.91376       -12.40782         7.96758
     2009.91650       -20.10564         8.13686
     2009.91923        -7.50941         7.89348
     2009.92197        -9.08925         9.21079
     2009.92471        -5.18538         8.04195
     2009.92745        -4.04396         8.37816
     2009.93018        -6.25568         8.39211
     2009.93292         0.45598         8.37301
     2009.93566       -10.92445         7.92655
     2009.93840        -0.06520        12.39326
     2009.94114        -0.86141         8.16989
     2009.94387        -7.42810         7.89207
     2009.94661         0.33731         8.14942
     2009.94935        -1.83985         7.81756
     2009.95209        -0.21224         8.19251
     2009.95483         0.91643         8.12663
     2009.95756         1.76982         8.65623
     2009.96030        -5.84623         7.93662
     2009.96304         0.69579         7.96537
     2009.96578         1.87129         8.15853
     2009.96851        -6.57619         8.53603
     2009.97125         8.95439         8.19409
     2009.97399        -1.38861         8.82029
     2009.97673       -15.76761         8.97001
     2009.97947       -12.76083         8.55450
     2009.98220       -13.30580         7.58581
     2009.98494         4.60319         8.61444
     2009.98768        -6.27642         7.80993
     2009.99042         0.36516         7.77149
     2009.99316       -15.09782         8.25434
     2009.99589        -6.80209         8.25586
     2009.99863        -4.05473         9.46953
     2010.00137         7.09369        10.91427
     2010.00411         3.37567         7.99567
     2010.00684       -13.25548         8.78693
     2010.00958        -3.37651         8.42471
     2010.01232         4.11604         8.38942
     2010.01506        -4.54890         8.63597
     2010.01780       -16.42081         8.75906
     2010.02053        -8.88180         9.28159
     2010.02327        -3.86177         8.58829
     2010.02601       -17.70547         8.58614
     2010.02875        -9.01006         9.43575
     2010.03149       -12.19744         8.63781
     2010.03422        -0.97955         7.91893
     2010.03696        -2.17216         8.65269
     2010.03970        12.79539         9.36055
     2010.04244        -2.65948         8.69296
     2010.04517         7.84252         8.77780
     2010.04791        -7.65933         8.30876
     2010.05065        14.69950         8.62613
     2010.05339        -2.85676         8.38495
     2010.05613        -4.43525         8.97950
     2010.05886        -9.51317         8.40737
     2010.06160        -5.05569         8.26097
     2010.06434       -22.09481         8.46312
     2010.06708        -8.05136         9.19831
     2010.06982       -10.88489         9.31642
     2010.07255       -10.11174         9.21315
     2010.07529       -28.01147        12.06146
     2010.07803       -13.02798         8.96124
     2010.08077       -15.76564        10.93085
     2010.08350       -11.38175        10.10348
     2010.08624       -18.85067         9.06274
     2010.08898        -5.19185         9.73973
     2010.09172       -12.86750         9.33837
     2010.09446       -29.88004         9.12095
     2010.09719       -26.58485         9.62975
     2010.09993        -7.95217         9.38571
     2010.10267       -21.04964         9.63292
     2010.10541       -18.12753        10.90095
     2010.10815       -16.10887         9.87727
     2010.11088       -19.16535        10.77270
     2010.11362        -1.48995        10.48480
     2010.11636       -14.97203         9.11759
     2010.11910       -15.12667         9.90709
     2010.12183       -20.89937         9.14667
     2010.12457       -14.78587         9.33918
     2010.12731       -14.12766        10.65498
     2010.13005       -18.42172         9.67596
     2010.13279       -22.35463         9.52251
     2010.13552       -20.87392         8.87803
     2010.13826       -17.27167        10.15147
     2010.14100       -12.59696         9.65160
     2010.14374       -13.59571         8.91196
     2010.14648       -16.35002         9.42842
     2010.14921        -4.81953         8.82632
     2010.15195       -16.77653         9.85469
     2010.15469        -4.89951         9.11985
     2010.15743         0.95372         9.35425
     2010.16016        -2.64371         9.37273
     2010.16290        -5.17232        10.21124
     2010.16564       -17.66010        11.92839
     2010.16838       -18.08806         9.63479
     2010.17112       -11.16865         9.80643
     2010.17385        -5.43553         9.68488
     2010.17659       -21.28314        10.97637
     2010.17933        -7.88117         9.47520
     2010.18207        -2.04605         9.67722
     2010.18480        -0.38325        10.02669
     2010.18754        -8.82833        10.39722
     2010.19028        -4.99170        11.80983
     2010.19302         0.54342        10.47918
     2010.19849        -8.29631        38.49719
     2010.20123       -11.99539        11.19819
     2010.20397       -19.41916        11.45337
     2010.20671       -13.72072        10.61580
     2010.20945        -8.92104        10.24266
     2010.21218       -10.72725        10.87254
     2010.21492       -11.27377         9.82688
     2010.21766        -0.02813         9.98121
     2010.22040        -0.03539         9.99126
     2010.22313       -21.84164        10.49201
     2010.22587         0.99060        11.90923
     2010.22861        22.59276        12.32613
     2010.23135        -5.53202         9.08142
     2010.23409       -24.24037        11.07667
     2010.23682         8.19570        10.55508
     2010.23956         5.88566         8.82804
     2010.24230         2.14835         8.76071
     2010.24504        -2.56384         9.65802
     2010.24778        -3.27717         9.43587
     2010.25051        -9.05244         9.27357
     2010.25325         0.57187        10.45090
     2010.25599        -1.09858         8.86761
     2010.25873         6.28290         8.76976
     2010.26146         5.52998         9.46324
     2010.26420        11.48188         7.89830
     2010.26694        15.95811         9.37065
     2010.26968         6.62286         9.16720
     2010.27242         0.45933         9.77471
     2010.27515         2.46634         8.53214
     2010.27789         0.33952         9.10131
     2010.28063        -5.39565         8.75907
     2010.28337        -1.46221         9.04773
     2010.28611        -7.94679         9.34946
     2010.28884        -4.53304         9.68149
     2010.29158        -3.95044         9.34394
     2010.29432         3.23771         9.56644
     2010.29706         8.28999         8.65400
     2010.29979        10.66553         9.04124
     2010.30253        -0.49561         9.05357
     2010.30527         9.32046         8.93665
     2010.30801         5.48579         8.52794
     2010.31075        -8.93138         8.74310
     2010.31348         0.12642         8.79054
     2010.31622        14.85320         8.45718
     2010.31896        -0.37942         8.28834
     2010.32170        -1.03776         8.76178
     2010.32444       -13.12066         8.29760
     2010.32717        -5.71686         8.79693
     2010.32991       -23.54902        14.49974
     2010.33265        -3.92102        14.59569
     2010.33539        -4.67762        24.14608
     2010.33812        -8.17753        14.25484
     2010.34086        -6.68396        13.21850
     2010.34360       -13.92924        13.71356
     2010.34634       -12.15420        16.15949
     2010.34908        -0.41265        15.91264
     2010.35181        -1.22964        14.19895
     2010.35455       -16.47447        15.02961
     2010.35729        -6.79434        16.51745
     2010.36003        -3.73891        14.79036
     2010.36277         9.15946        13.77890
     2010.36550       -14.64692        14.35973
     2010.36824        -9.19839        14.23850
     2010.37098         6.14220        14.68578
     2010.37372        -9.55932        16.36896
     2010.37645       -14.82286        14.17419
     2010.37919        25.10440        14.11929
     2010.38193        -4.21480        16.03064
     2010.38467       -12.03861        14.69628
     2010.38741        -2.38233        12.63602
     2010.39014        -8.98428        13.61399
     2010.39288       -22.52557        13.07742
     2010.39562        -7.04698        14.33967
     2010.39836       -21.56070        13.13938
     2010.40110        -8.59218        14.69261
     2010.40383        -8.88193        14.21277
     2010.40657       -17.88237        13.96378
     2010.40931       -18.55977        13.99063
     2010.41205        -4.91227        13.91708
     2010.41478         3.68194        13.34861
     2010.41752       -15.84787        14.59837
     2010.42026         4.45729        13.66283
     2010.42300        -4.93802        12.16395
     2010.42574       -10.42596        13.96176
     2010.42847        -5.02130        12.76773
     2010.43121       -12.37231        13.40446
     2010.43395         3.05674        14.50686
     2010.43669        -3.26209        12.60751
     2010.43943        -4.43190        13.70159
     2010.44216       -15.34543        13.92025
     2010.44490        -6.84750        12.57148
     2010.44764        24.39734        12.43010
     2010.45038         3.01963        13.02279
     2010.45311        -1.08784        13.54651
     2010.45585        -4.84965        13.66734
     2010.45859        -3.95085        13.35230
     2010.46133        -8.74824        12.99712
     2010.46407        -9.62027        14.91383
     2010.46680        -8.75378        16.23861
     2010.46954         5.81219        14.48963
     2010.47228        -8.82488        16.36631
     2010.47775       -11.42491        23.46386
     2010.48049         1.74525        16.01810
     2010.48323        -6.97070        16.16308
     2010.48597       -12.17587        16.57187
     2010.48871        -1.49153        15.04078
     2010.49144        -6.58538        15.81408
     2010.49418        -9.78188        15.30649
     2010.49692        -5.81551        15.00702
     2010.49966        -6.58674        14.25036
     2010.50240         8.48386        13.14322
     2010.50513        -1.13181        13.12048
     2010.50787        23.25769        13.17599
     2010.51061        -3.14462        13.88729
     2010.51335        15.46234        13.43910
     2010.51608         2.12278        13.36997
     2010.51882         3.21436        14.78067
     2010.52156        27.33715        13.53052
     2010.52430         3.49069        14.51401
     2010.52704         0.54071        13.85457
     2010.52977         5.67063        13.46376
     2010.53251         4.08653        13.28484
     2010.53525         0.99410        15.21699
     2010.53799         9.11018        16.45990
     2010.54073         4.91202        13.53119
     2010.54346        -6.98523        13.69119
     2010.54620         2.03057        13.46526
     2010.54894         5.69308        13.78708
     2010.55168         7.64048        19.09142
     2010.55441        22.38455        12.61080
     2010.55715        -4.42961        12.83701
     2010.55989       -10.23340        15.04055
     2010.56263        21.65515        13.74035
     2010.56537        13.91238        13.99115
     2010.56810         4.53992        13.18101
     2010.57084        -2.46820        12.80993
     2010.57358         0.33865        15.56763
     2010.57632         0.92351        13.18032
     2010.57906         3.83296        16.03831
     2010.58179        15.45182        13.75593
     2010.58453        -4.95012        14.44287
     2010.58727         5.73903        15.05509
     2010.59001         3.53152        14.54067
     2010.59274        10.16751        13.42126
     2010.59548        14.96919        14.14275
     2010.59822        -0.15014        15.34913
     2010.60096         9.18464        13.85584
     2010.60370         6.64001        15.32407
     2010.60643         9.16367        14.10827
     2010.60917         3.26483        15.15911
     2010.61191         1.26163        14.06929
     2010.61465         0.20632        14.86581
     2010.61739        -4.27756        12.90934
     2010.62012         6.73554        14.96644
     2010.62286        13.15316        14.04774
     2010.62560        -1.42293        14.98651
     2010.62834         3.04057        16.66221
     2010.63107        27.79965        13.81447
     2010.63381         0.75277        18.75604
     2010.63655         8.06692        12.81642
     2010.63929        -2.90993        14.32343
     2010.64203         0.62324        15.04560
     2010.64476        -0.67965        13.56798
     2010.64750         2.89376        13.06358
     2010.65024       -30.87393        16.57300
     2010.65298        13.74118        15.01126
     2010.65572         3.42763        16.41478
     2010.65845        -2.82285        15.66156
     2010.66119        -2.15015        14.17941
     2010.66393         3.31920        17.30517
     2010.66667         0.84593        13.81197
     2010.66940         7.79825        15.35653
     2010.67214        15.58855        14.28690
     2010.67488         8.69718        12.77248
     2010.67762         5.13880        14.14005
     2010.68036        23.51608        18.08393
     2010.68309         2.59921        14.00052
     2010.68583         5.32260        16.47712
     2010.68857         3.62139        14.32445
     2010.69131        -3.39444        14.11566
     2010.69405         8.06638        16.38883
     2010.69678         3.69070        13.97584
     2010.69952        11.71415        14.60374
     2010.70226         7.06653        14.25793
     2010.70500        17.97025        14.74028
     2010.70773         6.08619        14.86491
     2010.71047       -14.72368        16.33829
     2010.71321        15.75565        13.73120
     2010.71595        15.97047        13.65071
     2010.71869        11.12503        13.27077
     2010.72142         1.63320        18.53570
     2010.72416        46.10155        78.40131
     2010.72690       -21.33286        12.80524
     2010.72964         1.33884        14.53589
     2010.73238         2.12589        14.90629
     2010.73511        17.25711        15.86800
     2010.73785        -2.28398        17.17042
     2010.74059        13.57789        16.29891
     2010.74333         9.72660        14.25764
     2010.74606         4.69709        16.54080
     2010.74880         3.26880        13.80688
     2010.75154        12.01158        15.08242
     2010.75428         0.01106        14.85867
     2010.75702       -30.25560        13.23463
     2010.75975         8.47027        14.48457
     2010.76249         8.83666        13.30555
     2010.76523         7.80030        13.60856
     2010.76797        -6.60731        12.79919
     2010.77070        14.29749        14.73732
     2010.77344        14.37647        15.44400
     2010.77618         8.56070        12.52603
     2010.77892        -5.72857        14.02438
     2010.78166        -7.43265        13.78538
     2010.78439        18.26062        15.82225
     2010.78713        14.61516        18.39714
     2010.78987         2.66117        16.47936
     2010.79261         5.61846        15.57827
     2010.79535         4.83437        16.44435
     2010.79808         4.73227        15.99108
     2010.80082         7.56608        14.93544
     2010.80356         7.92904        16.73257
     2010.80630         9.87342        17.14845
     2010.80903        -7.21301        16.43641
     2010.81177         3.47858        15.56803
     2010.81451       -10.79016        15.99878
     2010.81725         7.34309        15.40735
     2010.81999        -0.06327        13.73766
     2010.82272         5.98903        15.31054
     2010.82546        -3.51486        15.90000
     2010.82820         4.08970        14.45188
     2010.83094         2.22377        15.24598
     2010.83368       -37.19884        15.36374
     2010.83641        -4.93179        14.87953
     2010.83915        -6.58784        17.29555
     2010.84189        -7.23843        15.74187
     2010.84463        12.21614        13.64119
     2010.84736         9.54439        15.12028
     2010.85010         1.31897        15.20125
     2010.85284         6.79157        15.03043
     2010.85558         0.75308        15.21707
     2010.85832        -4.13414        16.07984
     2010.86105        -5.34228        16.28312
     2010.86379        -2.96993        16.00287
     2010.86653       -12.89625        14.46651
     2010.86927        -9.23568        14.32860
     2010.87201       -13.84026        23.52715
     2010.87474         4.37217        13.67941
     2010.87748       -10.72733        13.08057
     2010.88022        13.38186        13.97425
     2010.88296        -3.32919        14.38199
     2010.88569         1.54221        14.11670
     2010.88843       -14.83345        16.26009
     2010.89117         8.08552        13.49004
     2010.89391        -1.42907        13.36726
     2010.89665         0.11906        13.47040
     2010.89938        -2.76674        13.54030
     2010.90212       -13.22526        13.21827
     2010.90486        -3.51229        13.50125
     2010.90760         0.87601        12.96392
     2010.91034       -15.99179        14.62633
     2010.91307        -0.90183        14.73959
     2010.91581        -1.15838        13.20213
     2010.91855        -6.67777        13.77833
     2010.92129        -2.41367        12.83926
     2010.92402       -11.55937        12.56587
     2010.92676        -3.20559        12.73954
     2010.92950         6.86152        12.82212
     2010.93224       -16.50006        12.88844
     2010.93498         0.16825        13.22583
     2010.93771       -18.83273        12.55452
     2010.94045        -5.87897        13.22000
     2010.94319        -6.49541        13.30995
     2010.94593       -14.47313        13.14687
     2010.94867       -16.83846        13.99577
     2010.95140       -20.92385        13.93552
     2010.95414       -11.98626        13.38882
     2010.95688       -17.57823        15.49755
     2010.95962       -15.37902        15.23531
     2010.96235        -1.91476        13.57275
     2010.96509        -2.76907        13.19586
     2010.96783         0.00450        12.86186
     2010.97057        -0.32777        14.25370
     2010.97331        11.25980        13.44801
     2010.97604       -14.68007        13.60856
     2010.97878       -13.03080        14.29235
     2010.98152        -4.36460        14.62638
     2010.98426        -5.18310        13.56185
     2010.98700       -17.18751        13.20878
     2010.98973         2.27624        14.43113
     2010.99247        -4.12749        15.50806
     2010.99521         2.32313        14.01693
     2010.99795        -4.19070        17.90588
     2011.00616       -13.89493        27.27191
     2011.00890        -7.38469        17.24427
     2011.01164        -7.56613        16.68965
     2011.01437       -11.96151        13.49158
     2011.01711       -17.69846        14.85475
     2011.01985       -18.69323        16.38412
     2011.02259       -32.17347        14.62847
     2011.02533       -38.67309        15.04208
     2011.02806         1.27337        16.24395
     2011.03080       -23.42988        14.90534
     2011.03354       -10.14539        14.64315
     2011.03628       -20.06076        14.79814
     2011.03901       -15.92751        14.94698
     2011.04175       -18.55950        14.06222
     2011.04449       -16.57527        13.96323
     2011.04723       -12.32748        14.21835
     2011.04997       -12.49793        14.65728
     2011.05270       -10.06387        14.72860
     2011.05544       -10.31715        14.82426
     2011.05818       -10.88111        13.48166
     2011.06092        -7.66329        14.39219
     2011.06366         4.05382        13.34846
     2011.06639       -13.18708        14.73894
     2011.06913       -19.54236        15.18820
     2011.07187        -7.51381        14.21401
     2011.07461       -20.05865        15.06217
     2011.07734       -10.57728        14.78441
     2011.08008       -15.72152        14.74792
     2011.08282       -10.70099        13.23133
     2011.08556       -20.35366        12.92066
     2011.08830       -16.53743        13.26065
     2011.09103       -10.13494        13.23089
     2011.09377        -7.26453        13.24523
     2011.09651       -10.59238        12.25998
     2011.09925       -17.25249        13.72746
     2011.10198        -0.33016        13.83036
     2011.10472       -19.38849        12.18633
     2011.10746       -20.26133        13.45430
     2011.11020        -7.19611        13.48773
     2011.11294         5.83401        13.46321
     2011.11567         3.95759        14.04249
     2011.11841        -1.33444        14.01844
     2011.12115       -11.84575        13.90816
     2011.12389         5.58321        16.66986
     2011.12663       -16.12950        15.76791
     2011.12936       -10.54623        16.84517
     2011.13210         1.20838        15.21452
     2011.13484        -9.89103        14.82149
     2011.13758       -12.67987        13.90658
     2011.14031        -1.38902        15.13478
     2011.14305        -6.18360        15.25803
     2011.14579       -12.66181        13.60986
     2011.14853        -5.33508        12.83361
     2011.15127        -1.94875        13.88482
     2011.15400        -5.56827        14.52567
     2011.15674         2.49597        16.00067
     2011.15948         7.09313        16.11656
     2011.16222       -14.23480        15.06480
     2011.16496         1.04918        12.66270
     2011.16769       -14.93304        13.71054
     2011.17043       -17.84150        14.39340
     2011.17317       -16.26031        15.09181
     2011.17591       -18.07154        15.57627
     2011.17864       -10.61253        15.13330
     2011.18138       -12.59315        14.28900
     2011.18412        -7.17613        15.19869
     2011.18686       -13.04837        14.50382
     2011.18960        -1.82806        14.84198
     2011.19233       -15.47592        14.15760
     2011.19507       -11.60031        14.59246
     2011.19781        -9.45703        14.79935
     2011.20055       -11.10062        15.66879
     2011.20329        -3.43379        15.30353
     2011.20602        -7.81542        14.46252
     2011.20876        -7.09111        15.72705
     2011.21150       -12.73020        15.77177
     2011.21424        -8.69041        14.45261
     2011.21697        -1.54909        14.98665
     2011.21971        -6.60197        15.78607
     2011.22245       -10.48229        13.74696
     2011.22519        -7.34339        15.01528
     2011.22793       -10.24997        14.09037
     2011.23066       -10.52049        15.15684
     2011.23340        -4.13149        14.57816
     2011.23614        -3.56463        14.94863
     2011.23888       -11.51581        15.20721
     2011.24162       -16.91023        14.49680
     2011.24435        -7.23732        15.16896
     2011.24709        -0.79772        15.42587
     2011.24983        -1.36251        19.24489
     2011.25530        -8.91103        32.97535
     2011.25804       -19.41672        17.48906
     2011.26078        21.18704        33.00828
     2011.26352        -7.14899        14.97686
     2011.26626       -11.33388        15.47943
     2011.26899        -8.20676        15.63945
     2011.27173       -14.38958        17.09051
     2011.27447        -6.89197        15.46533
     2011.27721        -8.35436        15.01902
     2011.27995        -9.01691        13.80229
     2011.28268        -6.40537        14.42100
     2011.28542       -18.94188        16.70915
     2011.28816       -16.80353        13.94858
     2011.29090        -6.28670        14.50331
     2011.29637         0.12200        13.76681
     2011.29911        -7.96931        14.22062
     2011.30185       -13.20871        14.30832
     2011.30459        -7.35762        15.85187
     2011.30732       -14.50023        13.88360
     2011.31006       -15.49359        14.08341
     2011.31280        -6.47932        15.43083
     2011.31554        -1.31941        14.22676
     2011.31828        -7.88777        14.12755
     2011.32101       -20.33597        16.12108
     2011.32375        -7.09994        14.93407
     2011.32649       -22.73713        15.22837
     2011.32923       -15.70762        15.20801
     2011.33196       -13.29697        14.74643
     2011.33470       -19.45139        15.86942
     2011.33744       -11.64120        13.76423
     2011.34018       -20.32357        15.00178
     2011.34292        -8.59641        14.77567
     2011.34565         0.84308        13.45568
     2011.34839       -16.38754        13.67950
     2011.35113       -10.63054        12.74466
     2011.35387       -15.98933        12.22352
     2011.35661       -24.53947        15.35986
     2011.35934       -16.25759        12.93005
     2011.36208       -20.19220        13.39285
     2011.36482       -16.74856        14.21459
     2011.36756        -9.87755        14.64319
     2011.37029        -9.07232        14.13159
     2011.37303       -16.22544        14.65179
     2011.37577       -15.81844        14.67289
     2011.37851       -20.49990        14.58107
     2011.38125        -2.33767        14.62384
     2011.38398       -16.83792        14.12437
     2011.38672        -3.47411        14.20309
     2011.38946        -6.69258        13.24309
     2011.39220       -13.01226        13.86958
     2011.39493       -16.19243        15.94904
     2011.39767       -18.68550        25.88328
     2011.40041        -8.75900        45.49561
     2011.41684         5.62682        24.27032
     2011.41958        -8.49787        13.29331
     2011.42231       -20.32694        13.44049
     2011.42505       -15.91044        16.92403
     2011.42779       -21.53902        14.00153
     2011.43053       -22.89739        14.10257
     2011.43326        -8.79210        14.08246
     2011.43600       -17.76802        16.10685
     2011.43874       -11.46279        14.20572
     2011.44148        -8.41888        13.69590
     2011.44695       -14.70154        15.01566
     2011.44969       -11.53825        13.83527
     2011.45243        -9.27473        14.55949
     2011.45517       -11.07523        14.12065
     2011.45791        -9.66097        14.96839
     2011.46064       -10.64239        14.17272
     2011.46338       -12.52997        14.15307
     2011.46612       -10.77895        16.79454
     2011.46886        -4.38389        14.69334
     2011.47159       -15.25233        14.24999
     2011.47433        -7.81243        13.01672
     2011.47707        -4.24546        13.86231
     2011.47981        -2.95288        15.99492
     2011.48255       -10.31960        14.50546
     2011.48528        -0.62979        13.67822
     2011.48802        -0.58002        14.72920
     2011.49076         2.83930        14.28635
     2011.49350       -11.32668        14.91566
     2011.49624         0.91605        14.22414
     2011.49897         4.83936        14.46002
     2011.50171         3.38471        15.14231
     2011.50445       -14.73038        14.98956
     2011.50719        -3.17092        13.98007
     2011.50992        -2.57399        18.65094
     2011.51266         0.22602        15.26133
     2011.51540       -11.61729        14.47213
     2011.51814       -11.14586        13.06656
     2011.52088         6.47439        13.95670
     2011.52361         8.87056        15.96416
     2011.52635         5.53803        13.71447
     2011.52909        -7.88998        13.99650
     2011.53183        -1.93698        14.04495
     2011.53457        -5.62208        13.73186
     2011.53730        -2.67142        15.14812
     2011.54004       -18.39096        13.86022
     2011.54278         2.79080        14.63665
     2011.54552        -0.48550        14.25794
     2011.54825        -7.65416        15.06596
     2011.55099        -0.25930        14.03642
     2011.55373        -4.03116        14.10196
     2011.55647         9.06536        14.09607
     2011.55921         3.52144        14.06864
     2011.56194       -11.02957        14.50366
     2011.56468        -2.51235        14.39138
     2011.56742         2.00535        13.22890
     2011.57016        -7.37335        15.13835
     2011.57290        -2.60631        14.78073
     2011.57563         7.01652        15.21739
     2011.57837         9.91470        14.58420
     2011.58111         8.53974        13.42442
     2011.58385         9.84985        14.05132
     2011.58658         0.84778        14.94964
     2011.58932        -1.67731        14.65386
     2011.59206        10.10821        13.24482
     2011.59480         0.48839        13.45519
     2011.59754        -4.74219        16.13149
     2011.60027        17.47723        16.05158
     2011.60301        16.37563        14.52002
     2011.60575        -5.07456        15.39555
     2011.60849        20.47073        14.41386
     2011.61123         5.43159        15.67503
     2011.61396         5.78491        15.79713
     2011.61670        16.44451        19.23298
     2011.61944         1.93113        16.40998
     2011.62218         7.38065        15.62187
     2011.62491         1.12067        14.51440
     2011.62765        -2.58607        15.29088
     2011.63039        22.75018        14.89778
     2011.63313         1.82830        18.70047
     2011.63587         1.13872        14.83790
     2011.63860        -1.84093        17.86012
     2011.64134         7.26791        15.20356
     2011.64408         8.26556        13.95490
     2011.64682        -1.71695        13.28661
     2011.64956         9.88931        13.56534
     2011.65229        12.79669        15.45986
     2011.65503        24.68807        13.85087
     2011.65777         2.00437        14.27255
     2011.66051         0.69580        17.11398
     2011.66324         9.28635        13.84893
     2011.66598        -3.57387        14.18140
     2011.66872        -2.78854        15.30790
     2011.67146        11.31022        14.28952
     2011.67420         7.05985        13.06203
     2011.67693         3.58188        14.50444
     2011.67967         0.01006        15.03636
     2011.68241        -2.51893        14.32076
     2011.68515        10.56250        13.03310
     2011.68789        10.15735        12.28242
     2011.69062        12.67472        13.86860
     2011.69336         1.47602        13.30457
     2011.69610         4.45696        12.90947
     2011.69884         5.62003        15.12543
     2011.70157        10.41062        13.92189
     2011.70431         6.00675        16.13883
     2011.70705        -1.51112        15.76939
     2011.70979        -2.54487        14.00460
     2011.71253        19.85485        12.23915
     2011.71526        -1.78352        13.93661
     2011.71800        -7.95897        15.76792
     2011.72074         3.80142        14.68135
     2011.72348        28.47231        13.21103
     2011.72621         9.35108        14.66006
     2011.72895         2.55334        12.91041
     2011.73169         5.07263        13.57433
     2011.73443        -4.35204        13.12767
     2011.73717        10.75806        13.71260
     2011.73990        14.52076        14.34855
     2011.74264        11.30451        14.93847
     2011.74264        18.77315        13.15440
     2011.74538        11.20569        16.36616
     2011.75086        -0.62812        12.37258
     2011.75359        18.68958        13.58503
     2011.75633        -9.58123        14.46917
     2011.75907        12.29157        13.00434
     2011.76181         5.46282        12.55435
     2011.76454        14.48187        13.70021
     2011.76728         2.94393        12.14441
     2011.77002        27.23970        13.96498
     2011.77276         6.05125        14.61208
     2011.77550         5.62331        16.17838
     2011.77823         2.66594        12.92718
     2011.78097         6.00891        12.84037
     2011.78371        18.57412        12.31528
     2011.78645         9.74940        12.53346
     2011.78919        -5.47465        11.81130
     2011.79192         0.95728        12.15199
     2011.79466         0.26742        12.64384
     2011.79740         3.01721        12.89919
     2011.80014         7.53875        13.46375
     2011.80287        12.97907        12.49167
     2011.80561        -2.25084        13.41878
     2011.80835        10.30308        12.49757
     2011.81109        -0.76228        12.33002
     2011.81383        -4.92679        12.50226
     2011.81656        -2.01821        12.06807
     2011.81930         1.05812        13.16490
     2011.82204         7.81369        13.59956
     2011.82478        -1.89014        12.68729
     2011.82752        -1.25619        13.16750
     2011.83025        -6.24412        14.89035
     2011.83299        -0.68441        12.47837
     2011.83573        -9.76161        13.82650
     2011.83847        -8.73151        12.77768
     2011.84120         2.95097        12.93151
     2011.84394        -1.34530        12.82676
     2011.84668        -2.90802        13.07322
     2011.84942        -2.54835        11.95910
     2011.85216        -0.89843        13.44607
     2011.85489        -6.52032        13.04197
     2011.85763         1.22456        13.25835
     2011.86037        11.10521        13.51357
     2011.86311         4.96208        13.52946
     2011.86585        15.83609        14.12045
     2011.86858         9.92616        12.64581
     2011.87132         3.39950        13.20133
     2011.87406        -3.24827        12.75943
     2011.87680         6.92831        13.09219
     2011.87953         1.27804        12.00378
     2011.88227        -0.67615        12.27229
     2011.88501         1.71209        12.09416
     2011.88775         3.73184        13.68093
     2011.89049        -7.22718        12.95957
     2011.89322       -10.54765        14.17508
     2011.89596         2.46585        13.71627
     2011.89870         9.00692        12.42569
     2011.90144       -15.66376        12.50219
     2011.90418       -35.97184        12.12894
     2011.90691        20.10934        12.82864
     2011.90965         7.07390        13.81001
     2011.91239        11.85174         7.13360
     2011.91513        -2.65243         6.72531
     2011.91786        -2.69484         7.21385
     2011.92060        -6.65126         6.86709
     2011.92334        -4.03060         6.82513
     2011.92608         0.48049         6.87116
     2011.92882         3.96142         6.85537
     2011.93155         3.60863         6.89569
     2011.93429         3.53976         6.90312
     2011.93703        -0.35996         6.79474
     2011.93977        -1.83448         6.86661
     2011.94251         4.47823         6.84849
     2011.94524        -0.37895         6.87484
     2011.94798         2.10422         6.90877
     2011.95072         0.74410         6.85203
     2011.95346         2.17772         6.97694
     2011.95619         0.35349         6.94812
     2011.95893        -0.62562         6.74596
     2011.96167        -5.36560         6.96970
     2011.96441         5.66347         6.97750
     2011.96715        -0.63710         6.58533
     2011.96988         0.35302         6.72672
     2011.97262        -3.39166         6.70957
     2011.97536        -6.46554         6.88683
     2011.97810         4.25294         6.75378
     2011.98084         0.07531         6.54459
     2011.98357         3.22973         6.76138
     2011.98631         2.77195         6.62913
     2011.98905        -5.31730         6.59682
     2011.99179         0.62124         6.63686
     2011.99452        -0.47374         6.58823
     2011.99726         2.27716         6.51929
     2012.00000         6.80186         6.55285
     2012.00274         1.19749         6.72165
     2012.00548         1.28613         6.58378
     2012.00821        -1.66189         6.59791
     2012.01095        -2.33532         6.56545
     2012.01369         2.95894         6.58599
     2012.01643        -0.18583         6.70406
     2012.01916        -2.71035         6.60251
     2012.02190        -2.87864         6.88666
     2012.02464         5.91766         6.58564
     2012.02738        -4.38676         6.56571
     2012.03012        -0.23662         6.53558
     2012.03285         2.17516         6.76663
     2012.03559        -5.04515         6.59900
     2012.03833       -15.13889         6.66847
     2012.04107        -3.19785         6.69084
     2012.04381        -6.73693         6.54264
     2012.04654         0.53181         6.69210
     2012.04928         2.85885         6.67602
     2012.05202         4.51600         6.55985
     2012.05476         2.14305         6.86808
     2012.05749         0.09854         6.64956
     2012.06023         4.68930         6.74479
     2012.06297        -3.89028         6.54524
     2012.06571         0.55255         6.59517
     2012.06845        -2.38143         6.64538
     2012.07118         3.31946         6.67496
     2012.07392         0.82943         6.55033
     2012.07666         6.37591         6.64679
     2012.07940        -3.76544         6.65978
     2012.08214         3.44123         6.65769
     2012.08487         1.69381         6.72246
     2012.08761        -2.27705         6.86785
     2012.09035        -6.38633         6.73759
     2012.09309         4.48517         6.66239
     2012.09582         5.45025         6.66239
     2012.09856        -0.19116         6.70168
     2012.10130         0.84169         6.83303
     2012.10404        -1.39648         6.66594
     2012.10678         0.89070         6.71500
     2012.10951         3.70680         6.82467
     2012.11225        -0.98513         6.70564
     2012.11499         2.31897         6.69051
     2012.11773         6.43465         6.84343
     2012.12047         3.76146         6.68589
     2012.12320         3.49882         6.69888
     2012.12594         0.21202         6.69231
     2012.12868        -1.59371         6.79219
     2012.13142        -1.96491         6.90563
     2012.13415         2.94144         6.68995
     2012.13689        -2.26469         6.85700
     2012.13963         3.55163         6.97193
     2012.14237         0.98180         6.83975
     2012.14511        -0.13358         6.76888
     2012.14784         1.09819         6.75058
     2012.15058         5.38502         6.69353
     2012.15332        -3.24429         6.60916
     2012.15606        -2.61294         6.77612
     2012.15880        -3.73131         7.01717
     2012.16153         0.18059         6.98713
     2012.16427        -3.89420         6.73873
     2012.16701         0.21616         6.80594
     2012.16975         0.38064         6.73822
     2012.17248        -3.83617         6.73497
     2012.17522        -3.05652         6.77241
     2012.17796        -1.27820         6.78384
     2012.18070        -2.40746         6.98535
     2012.18344        -7.82661         6.77234
     2012.18617         6.59004         6.82435
     2012.18891        -1.91746         6.75563
     2012.19165        -1.58792         6.65975
     2012.19439       -14.03540         6.79030
     2012.19713       -22.15419         6.78716
     2012.19986         1.00319         6.90601
     2012.20260        -5.21061         6.88380
     2012.20534         1.05706         6.59088
     2012.20808         1.01677         6.72427
     2012.21081        -3.82546         6.74330
     2012.21355        -0.53818         6.71664
     2012.21629        -5.66298         6.69830
     2012.21903        -7.22323         6.66946
     2012.22177        -4.02985         6.75503
     2012.22450        -2.23742         6.77029
     2012.22724        -2.24496         6.79159
     2012.22998        -2.66194         6.71533
     2012.23272         4.39412         6.83057
     2012.23546         5.67410         6.73626
     2012.23819         0.11430         6.93790
     2012.24093        -3.84407         6.81612
     2012.24367         2.86312         6.90049
     2012.24641         2.17358         6.58552
     2012.24914         0.94884         6.76320
     2012.25188        -4.86249         6.58811
     2012.25462        -0.03708         6.56075
     2012.25736         3.79418         6.58366
     2012.26010        -0.73782         8.74849
     2012.26283        -6.01913         6.56170
     2012.26557        -2.50532         6.54524
     2012.26831         2.97343         6.59975
     2012.27105        -2.55532         6.74488
     2012.27379        -2.94136         6.54392
     2012.27652        -2.59544         6.66991
     2012.27926        -4.28799         6.71600
     2012.28200         0.38331         6.57185
     2012.28474        -7.08699         6.57149
     2012.28747        -1.76671         6.92496
     2012.29021        -2.73183         6.71091
     2012.29295        -4.00566         6.55970
     2012.29569        -8.60151         6.55617
     2012.29843        -8.31412         6.64602
     2012.30116        -4.88523         6.58158
     2012.30390        -7.23438         6.64210
     2012.30664        -3.91738         6.51359
     2012.30938        -0.15381         6.58775
     2012.31211         0.39737         6.71590
     2012.31485         1.69113         6.73591
     2012.31759        -7.25234         6.60769
     2012.32033        -3.07513         6.68078
     2012.32307        -7.43268         6.71667
     2012.32580        -2.60238         6.62820
     2012.32854        -5.35066         6.59415
     2012.33128        -0.49487         6.71507
     2012.33402        -6.42865         6.83346
     2012.33676        -3.27795         6.64136
     2012.33949       -10.21339         7.31657
     2012.34223       -10.27751         6.55971
     2012.34497        -6.47902         6.73224
     2012.34771       -11.15490         6.68292
     2012.35044        -3.70350         6.52594
     2012.35318        -6.51882         6.57541
     2012.35592        -9.75937         6.59094
     2012.35866        -6.83848         6.57725
     2012.36140        -8.86795         6.58618
     2012.36413        -6.02698         7.39984
     2012.36687        -5.74986         6.53413
     2012.36961        -2.82218         6.58063
     2012.37235        -2.54975         6.55502
     2012.37509        -2.46206         6.60029
     2012.37782        -2.39784         6.84834
     2012.38056       -12.73057         6.71581
     2012.38330        -7.64343         6.73316
     2012.38604        -7.52998         6.73258
     2012.38877        -0.76987         6.91580
     2012.39151        -5.67291         6.78153
     2012.39425        -1.19504         6.64616
     2012.39699        -4.76781         6.69057
     2012.39973        -5.30323         6.81676
     2012.40246        -1.91705         6.78481
     2012.40520        -5.04025         6.77746
     2012.40794        -5.84809         6.57078
     2012.41068        -5.40591         6.66371
     2012.41342        -4.07153         6.66042
     2012.41615         1.53503         6.71527
     2012.41889         4.75246         6.72633
     2012.42163        -0.07204         6.80590
     2012.42437         2.31366         6.62085
     2012.42710        -4.92181         6.65125
     2012.42984        -4.00737         6.56870
     2012.43258        -2.58950         6.58687
     2012.43532         0.88027         6.66519
     2012.43806        -2.88860         6.58071
     2012.44079        -8.63859         6.58522
     2012.44353        -7.74219         6.59340
     2012.44627         0.72184         6.83847
     2012.44901        -2.47894         6.73012
     2012.45175         1.71217         6.66124
     2012.45448        -3.20273         6.60105
     2012.45722         3.10605         6.58379
     2012.45996         3.66617         6.63904
     2012.46270         1.19482         6.60720
     2012.46543        -1.71088         6.71583
     2012.46817        -2.93497         6.60846
     2012.47091        -4.26353         6.67501
     2012.47365         0.19654         6.76098
     2012.47639        -6.09368         7.46911
     2012.47912        -3.62898         6.63254
     2012.48186        -4.51925         6.58101
     2012.48460        -1.94069         6.58517
     2012.48734        -5.48915         6.60880
     2012.49008        -1.33382         6.68068
     2012.49281         0.48333         6.59825
     2012.49555         7.85602         6.66936
     2012.49829        -2.62773         6.61524
     2012.50103        -2.45733         6.69761
     2012.50376        -1.90464         6.90761
     2012.50650        -7.61947         6.56989
     2012.50924        -2.44512         6.80370
     2012.51198        -2.86956         6.75889
     2012.51472        -2.55194         6.78250
     2012.51745        -0.04112         6.57730
     2012.52019         1.91166         6.56757
     2012.52293        -0.85967         6.55792
     2012.52567         2.33090         6.60085
     2012.52841         1.80174         6.61133
     2012.53114         2.45160         6.58691
     2012.53388         1.56260         6.70440
     2012.53662        -5.25567         6.69809
     2012.53936         9.62848         6.63599
     2012.54209         5.38699         6.55469
     2012.54483         8.87236         6.56411
     2012.54757         5.68355         6.61512
     2012.55031         7.26842         6.70494
     2012.55305         4.91515         6.55763
     2012.55578         0.49398         6.64571
     2012.55852        -8.74545         6.66523
     2012.56126         2.85445         6.69251
     2012.56400         4.41536         6.63845
     2012.56674        15.34537         6.59453
     2012.56947         4.98979         6.52336
     2012.57221         7.15770         6.62194
     2012.57495         4.01776         6.60342
     2012.57769         8.12525         6.58421
     2012.58042         6.69461         7.54012
     2012.58316         8.20885         6.99599
     2012.58590         2.31255         6.60849
     2012.58864        13.09129         6.65755
     2012.59138         1.52083         6.65198
     2012.59411         8.58740         6.59102
     2012.59685         4.25119         6.56611
     2012.59959         4.14302         6.56225
     2012.60233         3.44705         6.77385
     2012.60507         4.39474         6.67416
     2012.60780         8.81585         6.67794
     2012.61054         7.02737         6.57597
     2012.61328         2.34484         6.56364
     2012.61602         7.96522         6.64349
     2012.61875         8.08664         6.77709
     2012.62149         9.12555         6.58066
     2012.62423         7.39463         6.90619
     2012.62697         7.14027         6.70388
     2012.62971         1.45742         6.57527
     2012.63244        11.20680         6.60080
     2012.63518        12.38623         6.62815
     2012.63792         2.54658         6.61648
     2012.64066         5.97775         8.27016
     2012.64339         4.45588         6.99488
     2012.64613        -0.93125         6.57622
     2012.64887         2.75913         6.72871
     2012.65161        13.91145         7.02107
     2012.65435         7.70395         6.63423
     2012.65708         7.35065         6.76732
     2012.65982         0.33611         7.02020
     2012.66256        10.72034         6.69663
     2012.66530        11.15603         6.57479
     2012.66804         6.34102         6.80080
     2012.67077         6.19471         6.59883
     2012.67351         5.14594         6.60460
     2012.67625         6.97490         6.70396
     2012.67899         9.86850         6.63021
     2012.68172        13.32347         7.06449
     2012.68446         8.00050         6.86164
     2012.68720         9.22318         6.68924
     2012.68994         9.48840         6.63621
     2012.69268         8.76818         6.88614
     2012.69541         2.86327         7.00132
     2012.69815         3.73262         6.76847
     2012.70089         0.22717         6.91626
     2012.70363         4.33490         6.67196
     2012.70637         2.46053         6.70993
     2012.70910         9.87469         6.72934
     2012.71184         8.09352         6.73813
     2012.71458         8.95962         6.57442
     2012.71732        14.43002         6.56843
     2012.72005        12.75327         6.88555
     2012.72279        11.69645         6.69892
     2012.72553         6.79656         6.71487
     2012.72827         4.51102         6.57130
     2012.73101         4.68547         8.31877
     2012.73374         9.18918         6.80015
     2012.73648         4.94480         6.75476
     2012.73922         2.59862         6.66876
     2012.74196        16.77207         7.04908
     2012.74470        12.82564         6.62223
     2012.74743         7.84589         6.66803
     2012.75017         3.02056         6.80855
     2012.75291        10.36143         6.83661
     2012.75565         2.19227         6.70692
     2012.75838         3.62866         6.77549
     2012.76112         2.55416         6.71693
     2012.76386         3.63998         6.65868
     2012.76660         8.78807         6.82699
     2012.76934         2.40202         6.99986
     2012.77207         8.41495         6.65934
     2012.77481         3.52017         6.67352
     2012.77755         6.04509         6.70284
     2012.78029         7.94928         6.96084
     2012.78303        13.84502         6.71515
     2012.78576         9.66227         6.68238
     2012.78850         7.58129         6.73678
     2012.79124         3.22266         6.65669
     2012.79398         6.17428         6.65950
     2012.79671         4.89701         6.91063
     2012.79945         5.06069         6.71625
     2012.80219         7.95458         7.00703
     2012.80493        -1.68197         6.71916
     2012.80767         2.89408         7.24812
     2012.81040         0.95055         6.91074
     2012.81314        -0.59227         6.87937
     2012.81588        -4.64969         6.72066
     2012.81862        -2.13348         6.84848
     2012.82136         4.06402         6.68512
     2012.82409         1.12471         6.94755
     2012.82683        -4.04711         6.74892
     2012.82957        -1.17652         6.74257
     2012.83231         1.26323         6.67522
     2012.83778        -0.51309         6.70080
     2012.84052         2.19983         6.76725
     2012.84326         4.81640         7.03779
     2012.84600        -3.13232         7.13805
     2012.84873        -6.11162         6.77806
     2012.85147        -0.27102         6.86030
     2012.85421         2.51068         6.85533
     2012.85695         4.65938         6.77400
     2012.85969        -0.88521         6.71584
     2012.86242        -6.86009         6.74111
     2012.86516         3.65235         6.70669
     2012.86790         0.47073         7.04572
     2012.87064        -3.25918         6.80192
     2012.87337        -3.79515         7.01305
     2012.87611        -3.15883         6.84682
     2012.87885         7.24515         6.69038
     2012.88159         0.39691         6.62090
     2012.88433         2.41297         6.60886
     2012.88706         0.38658         6.97335
     2012.88980         2.03601         6.72493
     2012.89254        -2.02637         6.60418
     2012.89528         2.16751         6.64861
     2012.89802        -3.83236         6.93839
     2012.90075         1.66514         6.73295
     2012.90349        -4.26051         6.92607
     2012.90623        -5.91235         6.83956
     2012.90897        -1.43914         6.72032
     2012.91170        -3.19893         8.95600
     2012.91444         0.60785         8.57501
     2012.91718        -3.09676         8.97258
     2012.91992        -2.54468         9.27966
     2012.92266       -13.92481        10.07161
     2012.92539       -11.73269         9.08852
     2012.92813       -10.50703        10.17274
     2012.93087         3.15785         8.31961
     2012.93361        -6.04925         8.72686
     2012.93634        -8.91483         7.19533
     2012.93908        -2.60217         7.56934
     2012.94182        -3.91590         8.20746
     2012.94456         4.27532         9.85861
     2012.94730        -4.76243        10.43638
     2012.95003         0.80400        10.71243
     2012.95277         1.03640         7.54386
     2012.95551        -4.74763         7.70601
     2012.95825         2.35652         6.93713
     2012.96099        -0.94125         6.92290
     2012.96372       -20.07669         6.85276
     2012.96646         1.47974         6.70462
     2012.96920        -1.29608         6.99713
     2012.97194         3.86710         7.35547
     2012.97467         8.79971         6.85739
     2012.97741         5.07666         6.74195
     2012.98015        -7.60708         7.26788
     2012.98289       -11.41934         6.92227
     2012.98563        -0.87323         6.74821
     2012.98836        -1.21045         6.92040
     2012.99110         2.11099         6.87401
     2012.99384        -0.52780         7.07333
     2012.99658        -1.74736         6.76609
     2012.99932        -2.60052         6.89718
     2013.00205        -3.21958         6.65375
     2013.00479        -8.55288         6.63207
     2013.00753        -6.72950         6.78305
     2013.01027        -4.05260         6.67143
     2013.01300         2.15508         6.68993
     2013.01574        -0.76218         6.91485
     2013.01848        -7.17037         6.73534
     2013.02122        -9.59330         6.78648
     2013.02396       -10.29750         6.62471
     2013.02669        -6.75176         7.15504
     2013.02943        -3.74255         6.76937
     2013.03217        -3.47072         6.72728
     2013.03491        -5.86088         6.73877
     2013.03765        -6.29805         6.94446
     2013.04038        -6.44230         6.92288
     2013.04312        -3.77067         6.96410
     2013.04586        -7.95982         6.87281
     2013.04860        -5.77931         6.80129
     2013.05133        -6.28412         6.65603
     2013.05407        -3.78536         6.84182
     2013.05681        -2.42409         6.86479
     2013.05955        -3.51608         6.69037
     2013.06229        -6.73024         6.92134
     2013.06502        -0.22386         6.91832
     2013.06776        -0.54673         6.94783
     2013.07050        -5.09729         6.95623
     2013.07324        -7.86155         7.42168
     2013.07598        -6.13527         6.69677
     2013.07871        -3.79223         6.63675
     2013.08145        -4.52407         6.76564
     2013.08419         0.08980         6.62889
     2013.08693         0.52433         6.68202
     2013.08966        -7.36767         6.63917
     2013.09240        -0.28001         6.82281
     2013.09514         3.21704         6.66560
     2013.09788        10.84763         6.91092
     2013.10062         4.61588         7.04040
     2013.10335        -4.66422         6.69952
     2013.10609        -0.80622         7.35331
     2013.11704        -5.15624         7.48534
     2013.11978        -3.28774         6.86091
     2013.12252        -0.93689         6.66964
     2013.12526        -4.45357         6.65258
     2013.12799        -0.63834         6.64621
     2013.13073        -4.11083         6.68840
     2013.13347         4.41676         6.76002
     2013.13621         5.07159         6.91760
     2013.13895        -2.67254         6.92453
     2013.14168        -3.34061         6.77900
     2013.14442        -6.94696         7.26031
     2013.14716         2.37916         6.91648
     2013.14990        -4.29229         6.77615
     2013.15264        -1.39589         6.63276
     2013.15537         0.12666         6.74692
     2013.15811         2.34816         6.65788
     2013.16085         2.47918         6.62839
     2013.16359        -0.20874         6.97654
     2013.16632         2.86356         6.60669
     2013.16906        -8.04527         6.95454
     2013.17180        -4.63914         6.80769
     2013.17454        -3.73169         6.74955
     2013.17728        -6.69046         6.89615
     2013.18001        -5.68622         7.18941
     2013.18275        -1.23024         6.66298
     2013.18549        -3.43447         6.73227
     2013.18823         0.92006         7.04186
     2013.19097        -5.12516         6.82281
     2013.19370         5.17800         6.66967
     2013.19644         3.35360         6.94552
     2013.19918        -4.21439         6.59487
     2013.20192         4.94713         6.79117
     2013.20465         4.05404         6.81519
     2013.20739         2.34470         6.63036
     2013.21013        -6.55461         6.74275
     2013.21287        -9.73771         6.73716
     2013.21561        -6.39258         6.61408
     2013.21834         1.40979         6.59802
     2013.22108       -12.26024         6.78855
     2013.22382       -13.68186         6.67734
     2013.22656        -3.52162         6.60574
     2013.22930        -8.80242         6.61243
     2013.23203         2.34317         6.66019
     2013.23477        -3.09232         6.74076
     2013.23751         3.72257         6.76148
     2013.24025        -2.52054         6.74734
     2013.24298        -8.25551         6.74618
     2013.24572        -1.21131         6.76482
     2013.24846        -1.99179         6.72037
     2013.25120        -9.13738         6.98150
     2013.25394         0.12950         6.74523
     2013.25667        -2.12555         6.90045
     2013.25941        -0.59058         6.84266
     2013.26215        -6.55419         6.74075
     2013.26489        -7.46032         6.72050
     2013.26762        -4.08111         6.67044
     2013.27036        -9.57633         6.76162
     2013.27310        -4.08706         6.92805
     2013.27584        -7.39811         6.82190
     2013.27858        -7.32480         6.86934
     2013.28131        -2.95016         6.83802
     2013.28405        -6.09386         6.99673
     2013.28679        -5.43809         6.68785
     2013.28953       -14.59638         6.93875
     2013.29227       -11.26141         6.71820
     2013.29500        -2.87590         6.70679
     2013.29774        -8.52622         6.97806
     2013.31691         2.84510         6.65997
     2013.31964        -6.51102         6.71850
     2013.32238        -4.29719         6.70340
     2013.32512         2.69565         6.85335
     2013.32786       -10.02323         6.73960
     2013.33060       -11.86597         6.73273
     2013.33333        -6.43717         6.72857
     2013.33607        -7.88772         6.90837
     2013.33881        -7.11776         6.73273
     2013.34155        -0.68009         6.74297
     2013.34428        -2.07027         6.73583
     2013.34702         3.38221         7.42297
     2013.34976         2.34162         6.69055
     2013.35250        -1.91966         6.68841
     2013.35524        -1.28798         6.81921
     2013.35797         1.45364         6.69988
     2013.36071         8.50332         6.67516
     2013.36345         0.49689         6.88041
     2013.36619        -6.51312         6.79389
     2013.36893         1.72568         6.71367
     2013.37166         2.96059         6.71314
     2013.37440        -0.88643         6.68930
     2013.37714        -1.78321         6.67174
     2013.37988        -3.40830         6.67924
     2013.38261        -4.05084         6.71801
     2013.38535       -11.19887         6.73551
     2013.38809         0.47248         6.69741
     2013.39083        -4.44288         6.69616
     2013.39357       -27.31934        32.19020
     2013.39904        -0.58191         7.97014
     2013.40178        -0.25028         6.72424
     2013.40452         5.67150         6.70482
     2013.40726        -4.39916         6.86519
     2013.40999         2.87159         6.88095
     2013.41273         4.07491         6.71676
     2013.41547         0.82901         6.89208
     2013.41821         1.89906         6.74163
     2013.42094         3.60997         6.85850
     2013.42368         1.74449         6.98636
     2013.42642         2.49590         6.88195
     2013.42916         2.10798         6.75737
     2013.43190         0.16628         6.70729
     2013.43463         4.62565         6.73030
     2013.43737         6.14813         6.75753
     2013.44011         2.11735         6.72833
     2013.44285         0.28660         6.69333
     2013.44559         1.54779         6.88066
     2013.44832        -1.45289         6.68839
     2013.45106         2.70711         6.69706
     2013.45380        -1.90433         6.74224
     2013.45654         7.17251         6.72467
     2013.45927         1.93679         7.94938
     2013.46201         2.94490         6.86461
     2013.46475        -0.52730         6.82082
     2013.46749         1.95669         6.70636
     2013.47023        -0.92434         6.85593
     2013.47296         0.13604         6.64884
     2013.47570         2.34341         7.14390
     2013.47844         7.54568        11.31690
     2013.48118        14.52920        10.04157
     2013.48392        -0.93013         7.19736
     2013.48665         3.53038         8.65248
     2013.48939         5.77658         7.05501
     2013.49213         3.11449         8.03202
     2013.49487         3.27005         7.99623
     2013.49760         2.41622         7.20808
     2013.50034         5.12994         6.62993
     2013.50308        -0.01191         6.60657
     2013.50582         8.90441         6.63351
     2013.50856         3.71301         6.58618
     2013.51129         5.48761         6.62329
     2013.51403        -0.87384         6.62109
     2013.51677         6.31588         6.68629
     2013.51951         1.32916         6.61591
     2013.52225         6.74097         6.77264
     2013.52498        11.72845         6.79769
     2013.52772         7.91014         6.68918
     2013.53046         4.12346         7.23364
     2013.54689         2.57794        18.67273
     2013.54962         5.47626        15.44626
     2013.56057        -1.77555        14.07834
     2013.56331         5.49057         6.75281
     2013.56605        -1.73218         6.63402
     2013.56879        14.82307         6.60495
     2013.57153        11.17798         6.73678
     2013.57426        14.13135         6.69542
     2013.57700         9.52588         6.66464
     2013.57974        10.54474         6.66756
     2013.58248        11.62007         6.61504
     2013.58522         5.22673         6.64899
     2013.58795        11.18121         6.73486
     2013.59069         5.14812         6.71277
     2013.59343         6.81771         6.81860
     2013.59617         5.58249         6.66811
     2013.59890         7.32811         6.63534
     2013.60164         8.97032         6.70904
     2013.60438         8.75150         6.72846
     2013.60712         7.57540         6.66887
     2013.60986         6.64274         6.81683
     2013.61259         9.28016         6.77664
     2013.61533         7.03603         6.83077
     2013.61807         2.99918         6.76608
     2013.62081         6.79433         6.94663
     2013.62355        12.03875         6.68511
     2013.62628         8.59804         6.70547
     2013.62902         4.42981         6.60803
     2013.63176         4.59149         6.65384
     2013.63450        11.41170         6.92776
     2013.63723        11.90117         6.66120
     2013.63997        10.83163         6.64589
     2013.64271        12.63292         6.80394
     2013.64545        11.79836         6.68534
     2013.64819        10.08456         6.69458
     2013.65092        13.77404         6.71882
     2013.65366         8.57731         6.66070
     2013.65640        12.86193         6.82058
     2013.65914        11.33043         6.90571
     2013.66188        14.30793         6.87949
     2013.66461         7.83034         6.67787
     2013.66735        17.96956         6.83400
     2013.67009         9.99295         6.64178
     2013.67283        11.13872         6.79405
     2013.67556         3.22477         6.82313
     2013.67830         9.16612         6.75108
     2013.68104        11.21415         6.65366
     2013.68378        13.19703         6.69310
     2013.68652        10.93263         6.57302
     2013.68925        11.80444         6.69151
     2013.69199         4.42071         8.29215
     2013.69473        21.88370        16.68561
     2013.69747        10.29603         6.78673
     2013.70021        15.43166         6.67663
     2013.70294        11.96036         6.70751
     2013.70568        12.76820         6.88617
     2013.70842        12.66443         6.72704
     2013.71116        11.40292         6.74632
     2013.71389        12.64497         6.63071
     2013.71663        11.91311         6.68153
     2013.71937        10.71200         6.81756
     2013.72211        14.07905         6.72606
     2013.72485        16.14272         7.04887
     2013.72758        20.55934         7.08173
     2013.73032         3.74478         6.63946
     2013.73306        10.12776         6.65961
     2013.73580         7.47843         6.64570
     2013.73854         2.81745         6.65673
     2013.74127         4.05073         6.78680
     2013.74401         7.33757         6.88850
     2013.74675         7.55878         6.62061
     2013.74949        10.95217         6.67907
     2013.75222         4.92310         6.80800
     2013.75496         1.60199         6.66117
     2013.75770         0.61748         7.32125
     2013.76044        -2.39796         6.66574
     2013.76318         2.53583         6.64717
     2013.76591         6.17300         6.85213
     2013.76865        -0.94104         6.67920
     2013.77139         0.57905         6.69716
     2013.77413         5.62095         6.71457
     2013.77687        -2.65772         6.78980
     2013.77960         3.58012         6.68786
     2013.78234        -4.23816         8.35487
     2013.78508        -3.12811        16.81876
     2013.78782        -8.97822         6.68465
     2013.79055         1.57230         6.96996
     2013.79329         2.58511         6.66772
     2013.79603        -0.68407         6.66440
     2013.79877        -1.55244         6.69599
     2013.80151         2.08102         6.83240
     2013.80424         7.61928         6.80455
     2013.80698        -0.25686         6.69227
     2013.80972         2.71903         6.62991
     2013.81246         2.75296         6.65515
     2013.81520         2.58541         6.88298
     2013.81793        -0.39274         6.68225
     2013.82067         6.12202         6.70574
     2013.82341         0.09288         6.68495
     2013.82615        -8.96888         8.32588
     2013.82888        -5.69006         6.88306
     2013.83162         0.98245         6.78939
     2013.83436         7.20350         7.01533
     2013.83710         3.71211         6.90299
     2013.83984         8.59849         6.74848
     2013.84257        -1.50247         6.91241
     2013.84531         3.44720         6.77709
     2013.84805         5.60096         6.66981
     2013.85079         3.94444         6.77667
     2013.85352         4.06709         6.76591
     2013.85626         2.37611         6.68827
     2013.85900         3.47521         6.70567
     2013.86174        -1.06848         6.70369
     2013.86448         5.76801         6.74050
     2013.86721         1.94168         6.64996
     2013.86995         1.79286         6.65448
     2013.87269         1.90277         6.72114
     2013.87543        11.48850         6.72178
     2013.87817         7.71146         6.68865
     2013.88090         5.68742         6.73740
     2013.88364         0.29961         6.97849
     2013.88638        -4.45463         6.66778
     2013.88912        -5.30335         6.70299
     2013.89185        -6.49053         6.65903
     2013.89459        -6.50814         6.69399
     2013.89733        -3.87926         6.68199
     2013.90007        -5.64931         6.75841
     2013.90281        -2.93042         6.91088
     2013.90554        -2.80287         6.71141
     2013.90828        -5.68941         6.80345
     2013.91102        -2.04549         6.69080
     2013.91376        -5.23841         6.64222
     2013.91650        -2.30914         6.66359
     2013.91923        -8.15885         6.98531
     2013.92197        -0.48679         6.92899
     2013.92471        -5.49755         6.76161
     2013.92745        -4.40571         7.91560
     2013.93018        -2.57118         7.43625
     2013.93566        -7.52617        14.86527
     2013.93840         0.20941         6.61192
     2013.94114       -12.22325         6.63350
     2013.94387         4.04357        10.73398
     2013.94661        -1.44882         6.98532
     2013.94935         0.32958         6.73086
     2013.95209        -3.51052         6.67072
     2013.95483         8.28003        19.26154
     2013.96030        -7.94187        24.93845
     2013.96304        -6.10590         6.78063
     2013.96578        -0.42159         6.95487
     2013.96851        -9.16964         6.75153
     2013.97125        -0.88530         6.76855
     2013.97399        -0.32795         6.86072
     2013.97673        -5.37967         6.84472
     2013.97947        -7.58074         6.74626
     2013.98220        -6.25709         6.78025
     2013.98494        -4.58740         6.95081
     2013.98768        -3.48360         6.99308
     2013.99042        -1.98514         6.64827
     2013.99316       -12.10114         6.83214
     2013.99589        -7.77787         6.78667
     2013.99863       -10.73305         6.95244
     2014.00137       -16.75433         6.75160
     2014.00411        -3.70824         6.66799
     2014.00684       -12.09719         6.73826
     2014.00958        -6.09053         6.68877
     2014.01232       -12.51672         6.78523
     2014.01506        -2.96170         6.94670
     2014.01780        -6.28380         7.19378
     2014.02053        -0.78345         6.66213
     2014.02327         0.37444         6.89982
     2014.02601         1.73661         6.94430
     2014.02875        -4.70014         6.99132
     2014.03149         8.65394         6.69880
     2014.03422        -3.36401         6.83078
     2014.03696        -4.01933         6.77953
     2014.03970        -1.66400         6.78249
     2014.04244        -7.49524         6.94827
     2014.04517        -1.81693         6.94136
     2014.04791         3.68395         6.66569
     2014.05065        -1.28537         6.68275
     2014.05339         0.89879         6.77291
     2014.05613        -3.99217         6.69859
     2014.05886        -2.31026         6.78319
     2014.06160        -3.49468         6.76514
     2014.06434         0.16885         7.01847
     2014.06708         0.90347         6.92465
     2014.06982         3.37232         6.75260
     2014.07255        -4.22446         6.73423
     2014.07529        -4.14000         6.64372
     2014.07803         0.69209         6.81391
     2014.08077        -0.53113         6.61816
     2014.08350         7.48796         6.77601
     2014.08624        -0.24539         6.81147
     2014.08898         6.93948        33.51517
     2014.09172         0.78001         7.05790
     2014.09446         1.84443         6.74990
     2014.09719         0.20257         6.96519
     2014.09993         3.80257         6.97574
     2014.10267        -0.66920         6.96357
     2014.10541         4.54286         6.64407
     2014.10815        -9.64952         6.66115
     2014.11088         0.01468         6.76034
     2014.11362        -4.36014         6.70901
     2014.11636         3.34969         6.80989
     2014.11910        -0.62247         6.64498
     2014.12183         4.61380         6.74399
     2014.12457         1.13588         6.83453
     2014.12731         7.48227         6.62876
     2014.13005         1.00769         6.79322
     2014.13279         1.53782         6.98297
     2014.13552         3.26853         6.81631
     2014.13826         0.07682         7.59225
     2014.14100         3.93238         6.85184
     2014.14374         3.40386         6.74880
     2014.14648        -0.74345         7.22286
     2014.14921         4.19471         6.77875
     2014.15195         5.31367         6.68147
     2014.15469         4.21372         6.77764
     2014.15743         2.73676         7.02185
     2014.16016         5.10887         7.15210
     2014.16290        -0.56363         6.84702
     2014.16564         6.81422         6.73011
     2014.16838         2.52498         7.03664
     2014.17112         0.41076         6.93149
     2014.17385        -2.04331         6.92455
     2014.17659         7.76142         6.75128
     2014.17933         5.69697         7.27624
     2014.18207         4.78036         6.90146
     2014.18480        -2.99897         6.75344
     2014.18754        -1.94588         7.44362
     2014.19028        -4.80169         6.92809
     2014.19576        -2.14390         6.71343
     2014.19849        -4.80790         6.79745
     2014.20123        -2.82359         7.15678
     2014.20397        -9.39142         6.75982
     2014.20671         0.36364         6.73413
     2014.20945        -0.09008         6.73919
     2014.21218        -2.79866         6.98017
     2014.21492         1.04067         6.91970
     2014.21766        -0.11749         6.74541
     2014.22040       -11.50532        11.41656
     2014.22313         0.61611         6.74756
     2014.22587        -5.28441         6.79021
     2014.22861        -1.58971         7.06927
     2014.23135        -0.03885         6.76344
     2014.23409        -1.09688         6.76968
     2014.23682        -3.01844         6.83081
     2014.23956        -3.61656         6.86271
     2014.24230        -0.13925         6.73040
     2014.24504        -4.05862        10.01692
     2014.24778        -3.42247         7.37165
     2014.25051        -2.45901         6.79817
     2014.25325       -14.07789         6.74333
     2014.25599        -4.06523         6.91450
     2014.25873        -4.12963         6.97505
     2014.26146        -2.08989         6.98292
     2014.26420        -4.59795         6.78696
     2014.26694        -4.10229         6.79378
     2014.26968        -0.39094         6.68687
     2014.27515        -4.54415         7.50935
     2014.27789        -1.46711         6.86190
     2014.28063        -3.71849        11.36152
     2014.28337       -10.37524        12.76119
     2014.28611        -7.06005         6.86554
     2014.28884       -12.88831         7.01926
     2014.29158        -2.02211         6.79089
     2014.29432        -2.39420         6.78742
     2014.29706        -5.26534         6.75069
     2014.29979        -5.82832         6.71799
     2014.30253         2.99200         6.76412
     2014.30527         2.63129         6.78810
     2014.30801        -0.04005         6.77769
     2014.31075        -0.70563         6.79729
     2014.31348        -3.80185         6.69401
     2014.31622        -2.80001         7.01940
     2014.31896        -2.93337         6.73238
     2014.32170       -11.23969         6.89795
     2014.32444        -2.65814         6.84336
     2014.32717        -3.03969         6.86118
     2014.32991        -0.43780         6.75339
     2014.33265        -0.83113         6.75600
     2014.33539        -3.30032         6.72098
     2014.33812        -6.06890         6.91535
     2014.34086        -9.95215         6.75312
     2014.34360       -11.24160         6.75813
     2014.34634        -9.13122         6.69856
     2014.34908        -1.78939         6.94464
     2014.35181         0.16313         6.94201
     2014.35455        -4.38537         6.73252
     2014.35729        -8.65850         6.75087
     2014.36003       -13.60305         6.77904
     2014.36277        -5.73398         6.73398
     2014.36550        -6.09769         6.90532
     2014.36824        -3.08141         6.85569
     2014.37098        -1.48636         6.73771
     2014.37372        -3.97082         6.76720
     2014.37645        -6.67649         6.74286
     2014.37919        -3.61297         6.80986
     2014.38193        -5.46946         6.96490
     2014.38467        -1.01079         6.78638
     2014.38741         0.81539         6.85889
     2014.39014        -4.19531         6.95901
     2014.39288        -0.00428         6.76388
     2014.39562         2.94098         6.79355
     2014.39836         1.66854         6.91837
     2014.40110        -2.69759         6.87478
     2014.40383        -3.83334         6.96946
     2014.40657        -7.76317         6.86078
     2014.40931         0.46770         6.69316
     2014.41205         3.86590         6.70584
     2014.41478         4.92079         6.74637
     2014.41752        -0.53201         6.89295
     2014.42026         0.48347         6.82401
     2014.42300         5.16190         6.68811
     2014.42574         3.37631         6.81377
     2014.43121        -0.28486         6.80008
     2014.43395         2.13028         6.76664
     2014.43669         6.85724         6.70462
     2014.43943        -0.11262         6.66353
     2014.44216        -7.51821         6.70013
     2014.44490        -1.25496         6.85356
     2014.44764        -6.52824         6.93430
     2014.45038        -3.22956         6.73998
     2014.45311        -1.14888         6.68062
     2014.45585        -8.71828         6.69033
     2014.45859        -1.26951         6.74657
     2014.46133         1.05178         6.77838
     2014.46407         4.34813         6.78745
     2014.46680        -3.00596         6.72098
     2014.46954        -1.86119         6.64984
     2014.47228        -1.05351         6.67976
     2014.47502         5.67325         6.90855
     2014.47775        15.93078        12.68552
     2014.48597         1.32194         6.81202
     2014.48871         5.00076         6.78450
     2014.49144        -0.01346         6.60563
     2014.49418         4.61095         6.60665
     2014.49692         7.90084         6.63909
     2014.49966         5.78590         6.65505
     2014.50240        -0.35755         6.67846
     2014.50513         5.64654         7.00734
     2014.50787         7.61339         7.21960
     2014.51061        -0.63119         6.62155
     2014.51335         7.86961         6.64399
     2014.51608         5.53625         6.74669
     2014.51882         7.76918         6.67814
     2014.52156         5.13167         6.77287
     2014.52430         9.28205         6.79485
     2014.52704        11.52874         6.69739
     2014.52977         9.00010         6.66745
     2014.53251        10.40132         6.65081
     2014.53525        14.68588         6.60803
     2014.53799         8.77302         6.64561
     2014.54073        14.93870         6.80244
     2014.54346        16.84634         6.79373
     2014.54620        19.12923         6.66825
     2014.54894         6.17014         6.80807
     2014.55168        12.22572         6.86408
     2014.55441         6.09971         6.95979
     2014.55715        10.39800         6.95149
     2014.55989        14.49869         6.67487
     2014.56263        14.52617         6.82230
     2014.56537         0.19642         6.62683
     2014.56810         2.90760         6.76382
     2014.57084         8.54728         6.63639
     2014.57358        12.16891         6.67525
     2014.57632         9.79609         6.66846
     2014.57906        10.68500         6.65879
     2014.58179        13.02252         6.83385
     2014.58453         8.35522         6.88349
     2014.58727         6.84988         7.08705
     2014.59001         7.92838         6.92621
     2014.59274        12.56917         6.76958
     2014.59548        12.18917         6.95877
     2014.59822         6.64232         6.85772
     2014.60096        12.97303         6.89027
     2014.60370        12.34901         6.78393
     2014.60643        10.14901         6.78796
     2014.60917        11.56968         6.75508
     2014.61191        23.55646         7.47002
     2014.61465        10.33428         6.79731
     2014.61739        11.94643         6.97521
     2014.62012        12.26344         6.92543
     2014.62286        13.73241         6.91427
     2014.62560         9.21260         6.79838
     2014.62834        11.99272         6.70833
     2014.63107        15.94434         6.80549
     2014.63381         8.42624         7.06785
     2014.63655        11.85718         6.77915
     2014.63929         6.99526         6.96886
     2014.64203         4.30201         6.81286
     2014.64476         6.03980         6.78867
     2014.64750        10.90791         6.86797
     2014.65024        11.04596         6.90535
     2014.65298        12.12203         6.81682
     2014.65572        15.18143         6.81931
     2014.65845        10.89228         6.80289
     2014.66119        12.63264         6.98181
     2014.66393        11.49367         6.71691
     2014.66667        10.73890         6.72485
     2014.66940        15.94709         6.92230
     2014.67214         3.83292         6.72204
     2014.67488         9.20429         6.76019
     2014.67762         8.25943         6.72962
     2014.68036        11.90679         6.79758
     2014.68309         9.21824         6.79463
     2014.68583        13.99673         6.76551
     2014.68857        -0.03323         6.90723
     2014.69131        12.69337         6.70134
     2014.69405        11.96780         6.72536
     2014.69678         8.98613         6.76234
     2014.69952        13.34430         6.74378
     2014.70226         5.68378         6.70943
     2014.70500         4.42693         6.65102
     2014.70773        10.85642         6.67088
     2014.71047        15.36251         6.94663
     2014.71321         6.06557         6.84604
     2014.71595         1.71048         6.83885
     2014.71869         5.79270         6.64432
     2014.72142         8.97412         6.63068
     2014.72416         6.64424         6.85509
     2014.72690        12.18407         6.81979
     2014.72964        15.59154         6.71463
     2014.73238         2.88151         7.56810
     2014.73511         5.66391         6.66342
     2014.73785         6.33301         6.74055
     2014.74059         1.52911         7.25634
     2014.74333         2.52653         6.99840
     2014.74606         3.92404         8.99147
     2014.74880         3.30344         6.65789
     2014.75154         5.77997         6.83496
     2014.75428         3.41216         6.80303
     2014.75702        11.21403         6.85894
     2014.75975        10.77824         8.51752
     2014.76249         7.55798         6.76083
     2014.76523         4.71170         6.73172
     2014.76797        10.01916         6.95983
     2014.77070         6.89259         9.02996
     2014.79261         5.85718         7.17030
     2014.79535        10.97639         6.81170
     2014.79808         3.42523         7.19814
     2014.80082        16.58042         6.75243
     2014.80356         8.66692         6.80994
     2014.80630        -0.07454         6.84365
     2014.80903         2.64087         6.94755
     2014.81177         7.66675         6.78136
     2014.81451        14.26328         6.62239
     2014.81725        10.76607         6.65592
     2014.81999         3.60191         6.82799
     2014.82272         5.07962         6.81665
     2014.82546         1.26351         6.66129
     2014.82820        -0.92638         6.58457
     2014.83094         7.38442         6.74702
     2014.83368         3.46776         6.78928
     2014.83641        -5.65828         7.17813
     2014.83915         4.43045         6.75395
     2014.84189        14.96341         6.83585
     2014.84463         0.28405         6.87847
     2014.84736         5.22242         6.97089
     2014.85010         7.39407         6.76605
     2014.85284        -0.10649         6.74715
     2014.85558         7.10070         6.93347
     2014.85832        -1.30542         6.83950
     2014.86105        -4.80497         6.76289
     2014.86379        -0.87074         6.72744
     2014.86653         2.73268         6.74049
     2014.86927        -1.63130         6.78911
     2014.87201        -0.51534         6.83754
     2014.87474        -1.77262         6.80065
     2014.87748         4.44575         6.93187
     2014.88022         4.32915         7.18756
     2014.88296        10.65146         7.11861
     2014.88569         2.31770         7.02822
     2014.88843         6.09647         7.41453
     2014.89117         2.43154         7.05053
     2014.89391        -0.11912         7.12724
     2014.89665         2.35459         7.08698
     2014.89938         3.91981         7.09461
     2014.90212         0.87148         7.10745
     2014.90486         5.65012         6.95446
     2014.90760         4.16669         7.80129
     2014.91034         6.53560         6.73032
     2014.91307         3.73269         6.92304
     2014.91581         1.20240         6.92605
     2014.91855        -1.15281         6.94792
     2014.92129         0.88884         6.87705
     2014.92402         1.10671         6.91702
     2014.92676         0.30608         6.79235
     2014.92950         6.03668         7.53849
     2014.93224        -0.08244         6.85790
     2014.93498        -1.32639         6.82948
     2014.93771        -9.92392         6.86216
     2014.94045         0.13697         6.74339
     2014.94319         1.90280         6.95680
     2014.94593        -0.03351         6.74960
     2014.94867        -5.06096         6.69634
     2014.95140        -6.90274         6.70943
     2014.95414         2.81728         6.59413
     2014.95688         1.54189         6.84248
     2014.95962         0.55587         6.76390
     2014.96235        -5.22790         6.65252
     2014.96509       -10.17172         6.78922
     2014.96783        -7.11180         6.64147
     2014.97057        -5.53255         6.72716
     2014.97331       -10.70214         6.68708
     2014.97604       -10.05576         6.76278
     2014.97878        -8.26872         6.64178
     2014.98152        -4.64094         6.91267
     2014.98426         0.26289         6.73765
     2014.98700         0.87696         6.66458
     2014.98973        -2.19413         6.78908
     2014.99247        -4.89894         6.65728
     2014.99521       -10.48897         6.63301
     2014.99795        -0.50186         6.72697
     2015.00068         4.81538         6.65535
     2015.00342        -3.36314         6.75496
     2015.00616        -2.88366         6.66045
     2015.00890        -6.39637         6.73796
     2015.01164        -2.77085         6.74158
     2015.01437        -7.33297         9.36389
     2015.05544         7.15599        17.45208
     2015.05818        -1.22130         6.74906
     2015.06092         9.11528         6.73245
     2015.06366        10.73958         6.94378
     2015.06639         6.39129         6.81270
     2015.06913         4.43913         6.85850
     2015.07187         5.27482         6.72005
     2015.07461         2.33845         6.72466
     2015.07734        -3.64733         6.70028
     2015.08008        -8.97649         6.68565
     2015.08282         1.43577         6.78571
     2015.08556         6.54747         6.73380
     2015.08830         6.45103         6.87482
     2015.09103        12.80077         6.63738
     2015.09377         7.04017         6.66571
     2015.09651         9.26910         7.48145
     2015.09925        17.49710        10.73829
     2015.10198         5.67416         6.76083
     2015.10472         8.37891         6.65537
     2015.10746         6.38973         6.63380
     2015.11020        -0.74071         7.37634
     2015.11294        -4.43606         7.11357
     2015.11567         5.26289         6.75659
     2015.11841         4.01807         6.67468
     2015.12115         3.94876         6.67445
     2015.12389         4.34092         6.73944
     2015.12663        -2.30853         6.69552
     2015.12936         7.37626         6.70155
     2015.13210         0.64903         6.67354
     2015.13484         0.96644         6.80327
     2015.13758        -0.33599         6.72019
     2015.14031        -0.04505         6.77049
     2015.14305        -1.60042         6.67634
     2015.14579         3.21680         6.67015
     2015.14853         0.70583         6.66886
     2015.15127        -1.87138         6.70943
     2015.15400         3.01098         6.73606
     2015.15674        10.19740         6.67103
     2015.15948         6.19175         6.67718
     2015.16222         5.40443         6.70061
     2015.16496         5.16260         6.79795
     2015.16769         1.88519         6.69419
     2015.17043         3.01119         6.71045
     2015.17317         1.66160         7.46418
     2015.17591         4.69174         6.86842
     2015.17864         2.39539         6.77468
     2015.18138         3.67664         6.70794
     2015.18412         5.71400         6.69602
     2015.18686        12.29354        19.92713
     2015.19233         8.03023         7.38734
     2015.19507        -2.55039         6.66741
     2015.19781         4.10567         6.67401
     2015.20055         6.21432         7.45620
     2015.20329         4.12451         6.69615
     2015.20602        -7.37221         6.83430
     2015.20876         2.09021         6.71594
     2015.21150        -6.65051         6.69270
     2015.21424        -0.06849         6.86316
     2015.21697         1.78349         6.68333
     2015.21971        -1.83257         6.72923
     2015.22245         1.17640         6.72083
     2015.22519         2.24541         6.68824
     2015.22793        -2.74406         6.70242
     2015.23066         1.60941         6.68914
     2015.23340         4.74238         6.84765
     2015.23614         1.39340         6.80109
     2015.23888        -0.68161         7.01453
     2015.24162         0.26886         8.61752
     2015.24435         9.46002         7.13407
     2015.24709        -1.11427         6.87209
     2015.24983         1.74312         6.63252
     2015.25257         7.54115         6.63475
     2015.25530         0.85200         6.64878
     2015.25804         5.96189         7.05074
     2015.26078        -0.06572         6.70524
     2015.26352         6.42950         6.69571
     2015.26626         3.15215         6.68249
     2015.26899         2.05638         6.69524
     2015.27173         1.59860         6.79169
     2015.27447         4.75947         6.80504
     2015.27721         5.47739         6.68966
     2015.27995         2.59290         6.75933
     2015.28268         2.53716         6.83118
     2015.28542        -4.08694         6.78814
     2015.28816        -5.96781         6.95235
     2015.29090        -0.50790         6.68625
     2015.29363        -3.37515         6.79660
     2015.29637         0.37216         6.65573
     2015.29911        -0.95390         6.67827
     2015.30185        -5.40887         6.80090
     2015.30459        -2.07336         6.84838
     2015.30732        -2.17454         6.74215
     2015.31006        -1.39401         6.65586
     2015.31280        -1.63803         6.65007
     2015.31554        -3.60817         6.66833
     2015.31828        -0.95406         6.68916
     2015.32101         2.05015         6.79931
     2015.32375        -2.73861         6.69948
     2015.32649        -3.78069         6.82350
     2015.32923        -0.28070         6.83237
     2015.33196         0.94184         6.67136
     2015.33470        -3.38498         6.53329
     2015.33744        -2.66114         6.53513
     2015.34018        -0.29849         6.74812
     2015.34292        -7.01261         6.57818
     2015.34565        -6.30931         6.73147
     2015.34839        -8.95201         6.53091
     2015.35113        -5.38123         6.48802
     2015.35387        -1.66907         6.50126
     2015.35661        -6.34976         6.51117
     2015.35934        -2.30840         6.76872
     2015.36208        -3.81141         7.06033
     2015.36482         0.38339         6.59715
     2015.36756        -3.24702         6.48581
     2015.37029        -3.31790         6.49371
     2015.37303        -4.53725         6.54574
     2015.37577        -3.76729         6.51602
     2015.37851        -3.58727         6.77538
     2015.38125        -1.62612         6.52339
     2015.38398         4.55937         6.69900
     2015.38672         7.47727         6.46448
     2015.38946        -1.26866         6.56133
     2015.39220         1.44295         6.51156
     2015.39493        -4.60374         6.52412
     2015.39767        -3.75787         6.65839
     2015.40041        -4.55708         8.00919
     2015.40315        -1.43733         6.63076
     2015.40589        -7.21626         6.70795
     2015.40862         2.38514         6.58410
     2015.41136         0.82191         6.57301
     2015.41410        -3.07810         6.54698
     2015.41684        -3.94853         6.62469
     2015.41958        -3.91102         6.55697
     2015.42231        -4.74008         6.72058
     2015.42505        -5.95557         6.75038
     2015.42779         2.63163         6.51388
     2015.43053         0.88650         6.49098
     2015.43326         2.43628         6.55288
     2015.43600        -3.92149         6.55305
     2015.43874        -0.36417         6.58138
     2015.44148        -8.20609         6.77146
     2015.44422        -6.60803         6.53367
     2015.44695         1.32297         6.53387
     2015.44969        -3.48142         6.56974
     2015.45243       -10.46133         6.70653
     2015.45517         0.48325         6.54839
     2015.45791        -0.22136         6.76140
     2015.46064         4.48332         7.00509
     2015.46338        -4.46828         6.97155
     2015.46612         5.30798         6.76042
     2015.46886         2.16314         6.63362
     2015.47159         5.19870         6.55607
     2015.47433         2.39448         6.76886
     2015.47707         7.54325         7.04303
     2015.47981         1.27944         6.85988
     2015.48255        -5.10100         7.13519
     2015.48528        -1.10712         6.50945
     2015.48802         0.94483         6.59706
     2015.49076        -1.97659         6.56959
     2015.49350         3.27367         6.75401
     2015.49624         2.47634         7.02942
     2015.49897         1.89785         6.72375
     2015.50171         0.24971         6.54768
     2015.50445        -3.16743         6.59190
     2015.50719         3.01383         6.74875
     2015.50992         7.50678         6.57131
     2015.51266         4.94973         6.81059
     2015.51540         4.40328         6.54862
     2015.51814        12.39198         6.84614
     2015.52088         4.49484         6.59610
     2015.52361         6.36114         6.75927
     2015.52635         2.83152         6.61735
     2015.52909        -0.41928         6.56775
     2015.53183         7.49754         6.61361
     2015.53457         2.59792         6.58280
     2015.53730         4.80705         6.69729
     2015.54004         4.23498         6.81170
     2015.54278         7.78164         6.92637
     2015.54552         8.54815         6.92239
     2015.54825        10.98639         6.78993
     2015.55099         9.76049         6.76380
     2015.55373        10.45187         6.75570
     2015.55647         8.19015         6.72374
     2015.55921         3.52656         6.71799
     2015.56194        12.05573         6.72060
     2015.56468         6.17675         6.73769
     2015.56742         1.74176         6.88611
     2015.57016        10.10992         7.10988
     2015.57290         4.13062         7.15372
     2015.57563         5.72065         6.83662
     2015.57837        11.92428         6.90777
     2015.58111         7.52885         6.89311
     2015.58385        13.25669         6.90484
     2015.58658         6.26108         7.17787
     2015.58932        11.44970         7.55318
     2015.59206        11.59284         6.96772
     2015.59480        12.71860         7.04684
     2015.59754        11.08934         6.90144
     2015.60027        11.22713         7.21906
     2015.60301         7.21984         7.45899
     2015.60575         1.08887         7.06584
     2015.60849        10.33097         6.89359
     2015.61123        11.71294         6.89447
     2015.61396        14.87649         6.91230
     2015.61670         4.19836         6.72395
     2015.61944         5.70098         6.73370
     2015.62218         6.26822         6.69604
     2015.62491        15.99189         6.71382
     2015.62765         7.26723         6.71630
     2015.63039        16.32408         6.75322
     2015.63313        11.83325         6.75358
     2015.63587        11.20999         6.75170
     2015.63860        11.14264         6.73311
     2015.64134         9.52529         6.94568
     2015.64408         6.32514         6.75545
     2015.64682         7.47354         6.88252
     2015.64956         4.92673         6.71754
     2015.65229        13.60469         6.70169
     2015.65503        13.79853         6.69333
     2015.65777         9.78614         6.84466
     2015.66051        15.80316         8.51573
     2015.66324        19.26852         6.76441
     2015.66598         9.57993         6.84890
     2015.66872        13.84635         6.83388
     2015.67146        -2.47734         6.79575
     2015.67420         5.97911         6.69860
     2015.67693         5.18499         6.68454
     2015.67967         7.26958         6.90820
     2015.68241        -0.91067         6.72834
     2015.68515         5.47496         6.76287
     2015.68789         8.03998         6.75867
     2015.69062        13.59970         7.48324
     2015.69336         6.94285         6.95333
     2015.69610        11.09670         6.75795
     2015.69884         4.57788         6.82183
     2015.70157         3.79998         6.74880
     2015.70431         7.25621         6.90456
     2015.70705         9.32890         6.68795
     2015.70979         9.55630         6.70110
     2015.71253         8.57347         6.76475
     2015.71526         5.51304         6.73932
     2015.71800        13.18671         6.73050
     2015.72074         6.65329         6.99403
     2015.72348         3.84493         6.87578
     2015.72621         2.31145         6.89291
     2015.72895         8.58324         6.75833
     2015.73169         7.66000         6.71941
     2015.73443         6.65505         6.83781
     2015.73717         6.90706         6.83343
     2015.73990         8.42454         7.00517
     2015.74264        10.51696         7.07114
     2015.74538         9.15611         7.11392
     2015.74812         1.89120         7.07442
     2015.75086         2.69519         7.06527
     2015.75359        -2.78941         6.69540
     2015.75633         5.08818         6.72469
     2015.75907         7.74442         6.77885
     2015.76181         3.58571         6.89300
     2015.76454         2.19401         6.68375
     2015.76728        10.31033         6.80155
     2015.77002         4.71821         6.87415
     2015.77276         6.10528         6.74607
     2015.77550        15.98931         3.98148
     2015.77823        15.13441         3.88599
     2015.78097         5.90966         3.88129
     2015.78371         6.75484         3.86150
     2015.78645        12.34724         3.99740
     2015.78919         7.78984         5.18784
     2015.79192         9.68828         3.96941
     2015.79466         6.16715         3.86152
     2015.79740         7.09033         3.86160
     2015.80014         9.12627         4.03693
     2015.80287         0.30798         3.92570
     2015.80561         2.86396         3.90521
     2015.80835         4.86069         3.88460
     2015.81109        10.94684         3.89854
     2015.81383        15.26535         3.89544
     2015.81656         7.01822         3.92397
     2015.81930        -1.35376         3.89999
     2015.82204         1.06652         3.94179
     2015.82478         8.03332         3.94229
     2015.82752         9.93327         3.96388
     2015.83025         5.31581         3.89806
     2015.83299        -3.85544         3.92092
     2015.83573        -0.29961         3.92362
     2015.83847         1.13643         3.98923
     2015.84120        -6.66680         3.92548
     2015.84394         2.04093         3.92893
     2015.84668         6.89518         3.94335
     2015.84942         2.08145         3.95319
     2015.85216         2.58935         3.96108
     2015.85489         1.56151         3.96621
     2015.85763        -4.20820         3.91383
     2015.86037        -3.19073         4.03591
     2015.86311        10.53404         3.93778
     2015.86585         0.20363         3.94460
     2015.86858         5.66807         3.98702
     2015.87132        -4.49519         3.90723
     2015.87406         1.30120         4.07634
     2015.87680        -7.61685         3.93522
     2015.87953         3.95893         4.60310
     2015.88227         7.40379         4.07513
     2015.88501        -5.62620         4.37166
     2015.88775        -1.81305         3.96647
     2015.89049         0.64634         3.91860
     2015.89322         1.33244         3.94536
     2015.89596         2.16959         3.96779
     2015.89870        -4.99880         3.96124
     2015.90144        -9.96816         3.92670
     2015.90418        -4.40009         3.93321
     2015.90691        -1.91873         3.92607
     2015.90965         2.45559         4.16886
     2015.91239         3.49009         3.93881
     2015.91513        -0.97847         3.96513
     2015.91786         0.74361         3.92923
     2015.92060         6.50232         3.95452
     2015.92334        -0.27242         3.92549
     2015.92608        -0.81700         3.96240
     2015.92882        -7.72561         3.98456
     2015.93155         0.57287         4.22444
     2015.93429        -4.33316         4.09507
     2015.93703        -4.24303         4.18242
     2015.93977         0.19454         4.08675
     2015.94251         0.90233         4.09455
     2015.94524        -3.10355         4.09898
     2015.94798         1.57395         4.06874
     2015.95072        -2.44230         3.88573
     2015.95346        -8.34046         4.00385
     2015.95619        -3.37269         3.96404
     2015.95893        -1.02540         4.05444
     2015.96167        -6.24628         4.05026
     2015.96441         6.34132         3.96764
     2015.96715        -1.59985         3.96824
     2015.96988        -0.82435         3.97698
     2015.97262        13.48317         3.95194
     2015.97536         6.69235         4.00814
     2015.97810        -1.62545         3.95754
     2015.98084        -9.49080         3.87751
     2015.98357        -5.28433         4.23949
     2015.98631        -9.53274         4.09664
     2015.98905         0.09859         3.94502
     2015.99179        -7.31669         3.93587
     2015.99452        -2.43110         3.87665
     2015.99726         1.82339         3.91155
     2016.00000        -0.93543         3.88370
     2016.00274        -3.05735         4.03083
     2016.00548        -8.73090         3.91482
     2016.00821        -1.32807         3.92027
     2016.01095        -2.13384         3.87575
     2016.01369         1.95282         3.92089
     2016.01643        -8.62992         4.11764
     2016.01916        -5.32746         4.11688
     2016.02190        -4.89826         3.96865
     2016.02464        -3.77201         3.86095
     2016.02738        -4.01322         3.97395
     2016.03012        -5.84774         3.90351
     2016.03285        -3.55946         3.90808
     2016.03559        -1.61145         3.89088
     2016.03833        -5.28845         4.00570
     2016.04107        -2.36884         3.87482
     2016.04381        -1.56114         3.99469
     2016.04654         2.17628         3.90978
     2016.04928        -3.92605         3.87746
     2016.05202         0.06502         3.88412
     2016.05476        -7.92271         3.84209
     2016.05749         1.90618         4.50334
     2016.06023        -6.70204         3.88059
     2016.06297        -5.45573         3.89109
     2016.06571        -4.96652         3.84488
     2016.06845         9.18181         3.90733
     2016.07118        -2.47750         4.03702
     2016.07392        -4.50351         3.94687
     2016.07666        -4.13197         4.02512
     2016.07940         8.23409         3.86175
     2016.08214         1.61405         3.92807
     2016.08487         4.96125         3.84045
     2016.08761        -5.60355         3.87101
     2016.09035        -7.98816         4.07745
     2016.09309        -4.32123         4.05223
     2016.09582        -3.60614         3.87653
     2016.09856        -2.05115         3.86061
     2016.10130        -4.54432         3.86025
     2016.10404       -11.38103         3.86829
     2016.10678        -3.21216         4.03132
     2016.10951        -5.19911         3.85665
     2016.11225        -1.91580         4.03589
     2016.11499        -4.19325         3.87170
     2016.11773        -2.37122         3.92307
     2016.12047         3.12378         4.09351
     2016.12320        -3.57787         3.83796
     2016.12594        -3.09106         3.86186
     2016.12868         0.42371         3.85388
     2016.13142        10.50255         3.88825
     2016.13415        -0.62234         3.86339
     2016.13689         0.57612         3.91280
     2016.13963        -3.47589         3.98911
     2016.14237        -1.78939         3.91789
     2016.14511        -4.71021         3.85289
     2016.14784        -9.34698         3.94397
     2016.15058         1.85363         3.85087
     2016.15332         2.63798         4.08682
     2016.15606         1.87236         3.82352
     2016.15880        -4.37009         3.96030
     2016.16153         2.43724         3.96150
     2016.16427        -0.34601         3.86123
     2016.16701         6.42461         3.85391
     2016.16975        -2.43481         3.94768
     2016.17248        -2.18571         3.92854
     2016.17522         2.79049         3.87826
     2016.17796         5.11214         3.93571
     2016.18070         6.66565         3.89267
     2016.18344         5.23932         4.02749
     2016.18617         1.51343         6.18002
     2016.18891        10.74380         3.94394
     2016.19165         1.14648         3.96250
     2016.19439         6.43469         3.87925
     2016.19713         2.89838         3.84907
     2016.19986         6.31655         3.96245
     2016.20260         5.99030         3.94349
     2016.20534       -10.78556         4.79491
     2016.20808        -4.73550         4.03755
     2016.21081         7.80712         4.04977
     2016.21355        -1.94096         4.07547
     2016.21629         1.59263         4.12224
     2016.21903        -1.53056         3.81577
     2016.22177        -3.71634         3.75743
     2016.22450         3.16412         3.84891
     2016.22724        -0.19069         3.98238
     2016.22998         8.96837         3.75854
     2016.23272        -0.99883         3.82279
     2016.23546         0.93824         3.78078
     2016.23819         1.00820         3.72857
     2016.24093        -0.03851         3.81747
     2016.24367        -1.24456         3.81961
     2016.24641         1.82629         3.88757
     2016.24914         0.02394         3.77041
     2016.25188        -1.45717         4.87688
     2016.25462         2.83376         3.87587
     2016.25736        -3.95432         3.82087
     2016.26010        -2.43414         3.82952
     2016.26283        -0.63060         3.83211
     2016.26557         2.07991         3.79137
     2016.26831        -3.16338         3.73060
     2016.27105        -1.07546         3.76532
     2016.27379         2.91407         3.74837
     2016.27652        -0.07273         3.78513
     2016.27926        -6.74924         3.79660
     2016.28200         3.55442         3.96950
     2016.28474         1.37213         3.80788
     2016.28747        -9.74816         3.89777
     2016.29021        -6.49652         3.81771
     2016.29295       -11.19507         3.80396
     2016.29569        -5.99062         3.79608
     2016.29843         0.38148         3.84644
     2016.30116        -2.15834         3.92143
     2016.30390        -4.20415         3.83902
     2016.30664        -2.32940         3.82689
     2016.30938        -7.35862         3.79215
     2016.31211        -4.47565         3.82747
     2016.31485        -2.67764         3.78525
     2016.31759        -6.31040         3.80736
     2016.32033        -4.80026         3.79959
     2016.32307        -9.08211         3.80761
     2016.32580        -1.78385         3.76819
     2016.32854        -6.02862         3.75837
     2016.33128        -4.54951         3.78434
     2016.33402        -0.87439         3.86897
     2016.33676        -1.09032         3.84223
     2016.33949         2.62723         3.86527
     2016.34223        -0.70229         3.82496
     2016.34497         0.33626         3.85411
     2016.34771         4.33008         3.78008
     2016.35044        -4.03536         3.93211
     2016.35318        -3.66681         3.75082
     2016.35592        -6.06073         3.75711
     2016.35866        -4.77737         3.74386
     2016.36140        -8.13262         3.80622
     2016.36413        -4.65114         3.92499
     2016.36687        -0.90171         3.76004
     2016.36961        -4.56128         3.78955
     2016.37235         1.63394         3.77878
     2016.37509        -5.59190         3.81331
     2016.37782        -5.29886         3.77797
     2016.38056        -5.19555         3.86339
     2016.38330        -0.34149         3.73897
     2016.38604        -2.77095         3.75724
     2016.38877         2.82899         3.77365
     2016.39151        -3.82629         3.78216
     2016.39425        -4.32351         3.81233
     2016.39699        -5.79807         3.73944
     2016.39973        -5.24258         3.80346
     2016.40246        -5.99280         3.86793
     2016.40520        -1.30667         3.75100
     2016.40794        -3.08733         3.79558
     2016.41068        -1.36159         3.80125
     2016.41342        -4.31706         3.75579
     2016.41615         0.09444         3.78460
     2016.41889        -6.09793         3.77065
     2016.42163        -6.82618         4.00578
     2016.42437        -3.82641         3.84493
     2016.42710         5.19926         3.80215
     2016.42984         2.69477         3.79196
     2016.43258         1.82718         3.75471
     2016.43532        -1.90717         3.81431
     2016.43806        -2.98562         3.78092
     2016.44079         5.27875         3.83233
     2016.44353         2.69161         3.80053
     2016.44627        -3.81233         3.74449
     2016.44901        -0.14313         3.78353
     2016.45175         5.16776         3.82045
     2016.45448        -0.17235         3.82569
     2016.45722         8.26441         3.76627
     2016.45996         0.79663         3.75949
     2016.46270         2.70730         3.83622
     2016.46543        -3.42332         3.73278
     2016.46817         5.32577         3.74166
     2016.47091         2.38233         3.80768
     2016.47365         1.49746         3.75394
     2016.47639         7.80602         3.88052
     2016.47912        -0.87977         3.85626
     2016.48186         3.71775         4.00927
     2016.48460         5.44755         3.77032
     2016.48734        -1.42064         3.80759
     2016.49008         5.39950         3.80706
     2016.49281         9.16206         3.75574
     2016.49555         4.15793         3.85079
     2016.49829        -1.64817         3.79080
     2016.50103         2.18016         3.78842
     2016.50376         4.69037         3.83966
     2016.50650         6.13520         3.80947
     2016.50924         4.43633         3.71727
     2016.51198         3.30336         3.80218
     2016.51472        -2.45580         3.89395
     2016.51745        13.94640         3.91861
     2016.52019        14.10769         3.77211
     2016.52293         4.97818         4.90021
     2016.52567         2.98053         3.75542
     2016.52841         4.81681         4.03038
     2016.53114         0.76362         3.78221
     2016.53388        -0.51002         3.77673
     2016.53662         0.03160         3.79114
     2016.53936         2.40745         3.73613
     2016.54209         6.98467         3.74346
     2016.54483         7.07090         3.78968
     2016.54757        -2.34378         3.85659
     2016.55031         6.33321         3.86267
     2016.55305         6.19505         3.75458
     2016.55578         4.74714         3.85513
     2016.55852         5.39212         3.77229
     2016.56126        10.92877         3.76395
     2016.56400         6.22963         3.76730
     2016.56674         6.28880         3.85014
     2016.56947         9.24593         4.30035
     2016.57221         2.58254         3.74608
     2016.57495         6.31221         3.83447
     2016.57769        12.96926         3.81513
     2016.58042         6.06933         3.77451
     2016.58316         7.99613         3.72591
     2016.58590         1.45811         3.73403
     2016.58864         5.82649         3.75052
     2016.59138         9.56826         3.74745
     2016.59411        10.52263         4.01440
     2016.59685        12.10944         4.02588
     2016.59959         5.95009         4.69411
     2016.60233        10.41861         4.05716
     2016.60507        12.57146         3.87750
     2016.60780        11.31171         4.30629
     2016.61054         6.91638         4.08893
     2016.61328        -6.93334         6.04757
     2016.61602         8.08119         5.64595
     2016.61875        19.10940         4.25876
     2016.62149         6.90074         7.30085
     2016.62423         4.92110         4.67376
     2016.62697         9.50455         4.40907
     2016.62971         5.09797         5.35038
     2016.63244         6.69736         5.29671
     2016.63518        18.16647         4.21410
     2016.63792        18.05274         4.59655
     2016.64066         9.47926         4.48694
     2016.64339         3.91519         5.17098
     2016.64613         1.68458         4.20563
     2016.64887        17.38708         6.90669
     2016.65161         5.45570         7.75799
     2016.65435         3.35896         5.22897
     2016.65708         4.51901         4.11389
     2016.65982        -1.24408         6.32875
     2016.66256         5.14589         5.22618
     2016.66530         1.98787         4.59576
     2016.66804         9.34607         4.15898
     2016.67077         9.84725         4.92418
     2016.67351         3.54441         5.21384
     2016.67625         8.30258         4.26985
     2016.67899        10.63392         5.31755
     2016.68172        16.78249         5.05669
     2016.68446         3.90885         4.29397
     2016.68720        -3.28150         3.83970
     2016.68994        11.20448         3.88540
     2016.69268         6.00286         3.74075
     2016.69541        12.70465         3.74900
     2016.69815         6.18430         3.72674
     2016.70089         5.81950         3.75809
     2016.70363         6.60921         3.72594
     2016.70637         6.47186         3.82709
     2016.70910         5.88484         3.84896
     2016.71184        15.76878         3.74636
     2016.71458         5.35875         3.74322
     2016.71732        17.11580         3.86296
     2016.72005         5.88334         3.74454
     2016.72279        16.51768         3.72473
     2016.72553        -2.39916         3.82691
     2016.73101         2.16618         3.75881
     2016.73374         6.83272         3.73510
     2016.73648         9.73720         3.74544
     2016.73922        12.35697         3.84449
     2016.74196         5.18933         3.76423
     2016.74470         3.35631         3.75087
     2016.74743         4.24117         3.75580
     2016.75017        11.01884         3.71784
     2016.75291         7.70446         3.74112
     2016.75565        11.50351         3.75950
     2016.75838        14.12598         3.78804
     2016.76112         7.85155         3.89807
     2016.76386         5.74777         3.74012
     2016.76660         6.65611         3.79944
     2016.76934        10.57185         3.76773
     2016.77207         6.54206         3.74151
     2016.77481         6.31728         3.73535
     2016.77755         0.47403         3.75963
     2016.78029        -3.63237         3.77491
     2016.78303         7.82332         3.76226
     2016.78576         4.35239         3.82589
     2016.78850        -0.15585         3.82912
     2016.79124         9.35753         3.80105
     2016.79398         6.98108         3.73033
     2016.79671         5.13822         3.76840
     2016.79945         5.86346         3.75001
     2016.80219        -2.55772         3.76532
     2016.80493        -0.01495         3.77781
     2016.80767         8.04196         3.75227
     2016.81040         4.40940         3.80739
     2016.81314         4.41174         3.75404
     2016.81588         3.28337         3.78750
     2016.81862        -3.44580         3.86260
     2016.82136         2.13687         3.77828
     2016.82409        -0.50076         3.74350
     2016.82683        -4.63419         3.73836
     2016.82957         3.69006         3.76420
     2016.83231         4.08864         3.83517
     2016.83504         3.99278         3.76157
     2016.83778        -5.15027         3.89451
     2016.84052        -2.71468         3.81317
     2016.84326        -3.55441         3.77016
     2016.84600         4.61204         3.79970
     2016.84873         4.95090         3.95490
     2016.85147        -3.54219         4.21448
     2016.85421        -1.84921         3.72634
     2016.85695         1.13441         3.76893
     2016.85969        -0.58141         3.84218
     2016.86242        12.04025         3.77580
     2016.86516         7.96177         3.81191
     2016.86790         9.17131         3.73708
     2016.87064         1.02511         3.78897
     2016.87337        10.00035         3.77192
     2016.87611         6.21153         3.74922
     2016.87885         2.76239         3.75803
     2016.88159        -6.28118         3.75190
     2016.88433         8.66488         3.74912
     2016.88706         5.48996         3.78149
     2016.88980         0.08387         3.81756
     2016.89254         0.27067         3.80111
     2016.89528        -3.76872         3.79161
     2016.89802        -4.81464         3.74358
     2016.90075        -5.90850         3.78066
     2016.90349        -2.93923         3.92598
     2016.90623         6.80110         3.75333
     2016.90897         3.37117         3.78052
     2016.91170        -1.19041         3.73881
     2016.91444         0.26896         3.76325
     2016.91718        -9.94316         3.90169
     2016.91992         0.28287         3.89513
     2016.92266        -1.03505         3.75503
     2016.92539        -1.51196         3.73935
     2016.92813       -10.39995         3.74131
     2016.93087         1.37625         3.86707
     2016.93361        -2.52428         3.99994
     2016.93634         0.62571         3.85102
     2016.93908        -4.33210         3.85838
     2016.94182        -1.27282         3.85238
     2016.94456         1.15362         3.86003
     2016.94730        -3.86060         3.93012
     2016.95003        -4.77438         4.59960
     2016.95277        -4.16249         6.45659
     2016.95551         6.16183         3.82392
     2016.95825         3.14949         3.84826
     2016.96099         0.88476         3.83130
     2016.96372        -6.69229         3.87941
     2016.96920         2.69623         3.80705
     2016.97194         6.07135         3.80443
     2016.97467       -15.94502         3.78764
     2016.97741       -13.38014         3.93271
     2016.98015        -1.85081         3.76939
     2016.98289        -5.24633         3.76638
     2016.98563        -5.80031         3.79046
     2016.98836         2.59267         3.77666
     2016.99110        10.72784         3.98593
     2016.99384         6.43004         5.99100
     2016.99658         6.92538         5.63084
     2016.99932         3.50777         6.04666
     2017.00479        -2.86914         5.73626
     2017.00753         3.45328         5.91233
     2017.01300         7.55370         6.46564
     2017.01574        10.72436         6.07864
     2017.01848         7.53090         5.96945
     2017.02122         0.86978         6.27216
     2017.02396         2.58621         6.00130
     2017.02669         2.66650         5.79167
     2017.02943         4.79648         5.63089
     2017.03217        -1.98034         5.72196
     2017.03491         1.11691         5.47794
     2017.03765        -1.43193         5.47284
     2017.04038         0.88182         5.74859
     2017.04312         1.83201         5.78913
     2017.04586        -9.25662         5.69145
     2017.04860         9.63918         5.83980
     2017.05133        -6.75709         5.86894
     2017.05407        -8.59301         6.17962
     2017.05681       -11.97837         6.04764
     2017.05955        -0.14589         5.93409
     2017.06229       -12.50812         5.90004
     2017.06502       -14.35258         6.23958
     2017.06776       -26.41616         5.99661
     2017.07050         5.61708         6.66679
     2017.07324       -10.73911         6.83776
     2017.07598       -17.31987         6.42413
     2017.07871         0.05404         6.39138
     2017.08145        -1.52316         6.19584
     2017.08419         2.65003         6.48881
     2017.08693        -5.70524         6.23302
     2017.08966       -25.12026         6.23478
     2017.09514         3.26812         6.42153
     2017.09788       -27.10656         6.38145
     2017.10062        -9.44249         6.17601
     2017.10335       -18.74407         6.45058
     2017.10609        -3.23129         5.91268
     2017.10883         9.72589         5.74787
     2017.11157        -2.39422         7.66927
     2017.11431       -12.67355         5.92541
     2017.11704        -9.39782         5.99966
     2017.11978       -19.42475         6.01695
     2017.12252       -17.53356         5.95153
     2017.12526        -0.88146         6.62552
     2017.12799        -8.60771         5.94403
     2017.13073        -7.59451         6.27795
     2017.13347        -0.39463         5.97523
     2017.13621         4.04421         6.26240
     2017.13895        -7.82866         5.83608
     2017.14168       -14.32483         5.83979
     2017.14442        -3.94492         5.85483
     2017.14716       -20.69239         6.10110
     2017.14990       -22.00866         5.87623
     2017.15264        -7.76513         6.02805
     2017.15537        -1.44171         6.13894
     2017.15811       -11.33641         5.92897
     2017.16085         9.68933         5.85521
     2017.16359       -14.86795         6.28562
     2017.16632        -5.37778         5.97991
     2017.16906        -4.20894         5.96833
     2017.17180         1.02723         5.78446
     2017.17454       -23.06796         6.16072
     2017.17728        -5.54498         6.11457
     2017.18001        -0.50712         5.77524
     2017.18275        -5.13220         6.38704
     2017.18549       -16.30474         5.68902
     2017.18823        -7.06557         6.41953
     2017.19097       -13.37144         6.58390
     2017.19370        -6.36052         6.16094
     2017.19644       -16.49452         5.95997
     2017.19918         7.96202         6.23709
     2017.20192       -13.14336         5.98530
     2017.20465        -4.09072         6.16964
     2017.20739        -5.43746        17.29463
     2017.21013         3.51041         5.88753
     2017.21287       -17.64266         6.06860
     2017.21561       -11.09293         6.06770
     2017.21834        -8.20293         6.00121
     2017.22108        -4.30928         6.00361
     2017.22382        -5.24920         6.05430
     2017.22656       -25.60902         6.14274
     2017.22930       -20.12067         5.68840
     2017.23203       -19.13330         5.66926
     2017.23477       -25.73847         6.08433
     2017.23751       -10.76816         6.21489
     2017.24025       -11.75859         6.01896
     2017.24298       -15.65517         5.57474
     2017.24572       -19.17944         5.94076
     2017.24846       -17.92188         5.73513
     2017.25120       -19.41906         5.92951
     2017.25394       -16.45599         5.81271
     2017.25667        -4.64587         6.18399
     2017.25941       -27.80691         6.24670
     2017.26215       -12.72750         6.38592
     2017.26489        -4.79138         6.51005
     2017.26762        -3.52212         6.49266
     2017.27036        -7.99224         5.95637
     2017.27584       -26.31830         6.17203
     2017.27858       -22.57674         6.23332
     2017.28131       -23.53928         6.02614
     2017.28405       -16.99952         6.21328
     2017.28679       -25.93958         5.69005
     2017.29227       -23.28555         6.36519
     2017.29500        -8.53724         6.42804
     2017.29774       -20.86628         6.91900
     2017.30048       -21.08380         5.86311
     2017.30322       -26.83667         6.64432
     2017.30595       -10.00561         6.09684
     2017.30869        -5.61754         6.02251
     2017.31143       -10.52216         6.41306
     2017.31417       -19.80458         6.04916
     2017.31964       -23.86006         5.88962
     2017.32512       -17.69858         5.91259
     2017.32786       -18.04131         5.81018
     2017.33060       -23.82690         5.93745
     2017.33333       -15.78149         5.68813
     2017.33607        -8.76202         5.61528
     2017.33881       -19.69064         6.10655
     2017.34155       -16.76146         5.70142
     2017.34428       -26.15532         5.79230
     2017.35524       -11.96286         5.82712
     2017.36071       -23.20226         5.74120
     2017.36619       -23.87694         5.50211
     2017.36893       -18.76717         5.80709
     2017.37166       -16.55343         5.77158
     2017.37440       -16.63601         5.70490
     2017.37714       -14.66422         6.60373
     2017.37988       -14.88336         5.85088
     2017.38261       -14.96073         5.61206
     2017.38535        -9.16126         5.70531
     2017.38809        -8.89135         5.88753
     2017.39083        -2.42678         5.87800
     2017.39357       -18.86740         5.67416
     2017.39630       -17.72096         5.64984
     2017.39904        -1.89773         5.70254
     2017.40178        -4.99393         5.59512
     2017.40452       -14.88556         5.85768
     2017.40726        -4.17455         5.65206
     2017.40999        -1.95131         5.54546
     2017.41273       -14.05765         5.65962
     2017.41547       -16.08140         5.70104
     2017.41821        -2.01530         5.52408
     2017.42094       -14.43590         5.75116
     2017.42368       -13.99456         6.69333
     2017.42642        -3.09307         5.88127
     2017.42916       -11.31413         5.67227
     2017.43190        -7.13238         5.85696
     2017.43463        -9.13637         5.61992
     2017.43737       -14.29001         5.90761
     2017.44011        -8.01973         5.45117
     2017.44285        -7.95248         5.57702
     2017.44559       -18.29916         5.72425
     2017.45106        -5.64324         5.68565
     2017.45380        -0.61778         5.80689
     2017.45654         9.27344         6.02235
     2017.45927         2.38364         5.55556
