# ================= DQRFIT RESULTS ================
# INPUT FILE: series/SEAS.rad
# OUTPUT: CLEANED_DATA
# FILTER FUNCTION: f(t)
# f(t)=+line(t)+annual(t)
# line(t)=+P 1+P 2*t
# annual(t)=+P 3*sin(2*pi*t+P 4)
# heav(t)=(t<0?0:1)
# TOTAL OBSERVATIONS MTOT= 3082
# INITIAL TIME INTERVAL= 2017.4565 - 2008.6461 =  8.8104
# TOTAL OBSERVATIONS AFTER PREFILTER M= 3064
# TIME-SPAN= 2017.4565 - 2008.6461 =  8.8104
# OBSERVATIONS: USED M=  3064 REJECTED MTOT-M=    18 %USED=   99.4160
# N=  4 PARAMETERS
# MAXSIG= 175.00000
# MAXRES=  35.93255
# SCALE FACTOR FOR LENGTHS: SCL=  10.00000
# SCALE FACTOR FOR SIGMAS: SCLSIG=   1.00000
# CHI^2=   4730.076 DOF=  3060 CHI^2/DOF=   1.54578
# RMS=      5.360 SDEV=      5.299 MEAN=    0.81626
#  P #       PARAMETER +-    SIGMA %error PARAMETER NAME
# P 1 =     -2106.89002 +-   62.469   2.96 YZERO                              
# P 2 =         1.04922 +-    0.031   2.96 SLOPE                              
# P 3 =         3.78434 +-    0.131   3.46 ANNUAL AMPLITUDE                   
# P 4 =        -2.93238 +-    0.048   1.63 ANNUAL PHASE                       
#       T             B_CLEANED       RE-SCALED_SIG_OBS
     2008.64613         1.18670         4.63600
     2008.64887         7.22496         3.88807
     2008.65161         3.89383         3.90260
     2008.65435         4.38819         3.93181
     2008.65708         4.65298         4.07367
     2008.65982         4.72933         3.96360
     2008.66256        10.09402         3.94811
     2008.66530        -1.22163         3.93532
     2008.66804         4.93616         3.92632
     2008.67077        -0.86241         3.96008
     2008.67351         5.39663         3.97802
     2008.67625         0.79277         3.97727
     2008.67899        -1.12745         3.97448
     2008.68172         8.97722         3.94066
     2008.68446         3.79726         3.95772
     2008.68720         2.97022         3.96138
     2008.68994         5.74314         4.01029
     2008.69268         3.15264         4.02980
     2008.69541         1.69835         3.97925
     2008.69815        13.05954         3.95900
     2008.70089         5.81586         3.95340
     2008.70363         5.70413         3.98399
     2008.70637         6.76660         4.02049
     2008.70910         1.98305         4.01909
     2008.71184         2.30501         4.05536
     2008.71458         7.04157         3.89644
     2008.71732         2.34141         3.98770
     2008.72005         0.55139         3.91795
     2008.72279         3.56344         3.90424
     2008.72553        -4.21815         3.91616
     2008.73101        -1.74976         3.89735
     2008.73374         5.54051         3.99150
     2008.73648         0.04928         3.88431
     2008.73922        -4.00589         4.00536
     2008.74196         0.07041         3.88656
     2008.74470         0.99482         3.98115
     2008.74743         8.56410         3.88720
     2008.75017         5.24981         3.94358
     2008.75291         5.51135         3.90403
     2008.75565        -2.34520         3.88070
     2008.75838        14.27690         3.96520
     2008.76112        -0.76578         3.89930
     2008.76386         1.86905         3.87923
     2008.76660        -1.94001         3.88994
     2008.76934         6.30572         3.93619
     2008.77207        -0.57706         3.82822
     2008.77481        -6.53488         3.88451
     2008.77755        -9.78864         3.84757
     2008.78029         3.23077         3.83370
     2008.78303         1.16262         3.86171
     2008.78576        -0.18931         3.85042
     2008.78850        -3.91265         3.95501
     2008.79124        -1.98234         4.00449
     2008.79398         4.99397         3.87411
     2008.79671         3.69885         3.85134
     2008.79945         1.12523         3.87066
     2008.80219         4.55066         3.90200
     2008.80493        -4.24371         3.89397
     2008.80767        -2.84561         3.87660
     2008.81040        -5.05835         3.91403
     2008.81314         0.89303         6.10344
     2008.81588         3.81597         3.86962
     2008.81862         5.12929         3.87325
     2008.82136         5.51807         3.87315
     2008.82409         3.57709         3.92419
     2008.82683         8.90755         3.88768
     2008.82957         3.15866         3.88645
     2008.83231         8.24224         4.18431
     2008.83504         7.01252         4.00200
     2008.83778        -0.71095         3.93265
     2008.84052         4.30723         3.97721
     2008.84326         6.09309         3.88437
     2008.84600         5.66615         3.90803
     2008.84873        -3.67605         3.96892
     2008.85147         5.93884         3.93573
     2008.85421         3.50523         3.87698
     2008.85695        -0.45767         3.94282
     2008.85969         4.97720         3.87288
     2008.86242        -3.27116         3.88896
     2008.86516         1.42884         3.88505
     2008.86790        -0.93373         3.96224
     2008.87064        -3.68110         4.00615
     2008.87337        -0.71611         3.84234
     2008.87611         1.67518         3.93821
     2008.87885        -1.10318         4.02780
     2008.88159        -3.52192         3.87306
     2008.88433        -6.52582         3.98062
     2008.88706         2.21666         4.19494
     2008.88980        -1.67560         4.21850
     2008.89254         2.86599         4.00717
     2008.89528        -2.04185         4.07350
     2008.89802        -7.19239         4.08732
     2008.90075        -3.78744         3.92089
     2008.90349         1.39882         3.93694
     2008.90623         1.71802         4.03717
     2008.90897         4.96103         3.99647
     2008.91170        -0.25866         3.97615
     2008.91444         5.05021         3.85717
     2008.91718         0.97875         3.87216
     2008.91992         5.20723         3.96571
     2008.92266         6.29065         3.93122
     2008.92539         4.82287         3.90709
     2008.92813        -3.92211         3.95510
     2008.93087        -1.19459         4.11140
     2008.93361         6.89758         3.87815
     2008.93634         7.22444         3.97300
     2008.93908        -1.77813         4.03061
     2008.94182        -3.18391         3.89553
     2008.94456         5.68899         3.89334
     2008.94730         4.82630         3.98725
     2008.95003        10.29184         3.87746
     2008.95277         2.37286         3.84511
     2008.95551         6.49086         3.87897
     2008.95825        -1.65843         3.82398
     2008.96099        -1.50780         3.88124
     2008.96372         2.90903         3.85761
     2008.96646         0.38545         4.02803
     2008.96920       -13.30453         3.92981
     2008.97194        -6.31697         3.85534
     2008.97467        -1.24423         3.89707
     2008.97741        -2.88425         3.93057
     2008.98015         3.68969         3.89238
     2008.98289         6.01614         3.90470
     2008.98563        -0.61502         3.84987
     2008.98836         0.28233         3.83248
     2008.99110        -5.37410         3.85365
     2008.99384         5.39881         3.83952
     2008.99658         4.39045         3.93612
     2008.99932         0.34094         3.86112
     2009.00205         1.32327         3.83429
     2009.00479         3.71904         3.83387
     2009.00753         3.05912         3.85312
     2009.01027        -3.99325         3.91125
     2009.01300         6.44477         3.90041
     2009.01574        -1.20858         3.84770
     2009.01848        11.36043         3.87997
     2009.02122         7.97900         4.08980
     2009.02396        -0.15077         3.97281
     2009.02669        -7.20151         3.90681
     2009.02943       -10.39281         3.87198
     2009.03217        -9.28294         3.83793
     2009.03491        -8.75023         3.86824
     2009.03765        -8.76435         3.87404
     2009.04038        -8.27002         3.88912
     2009.04312        -9.46296         3.88902
     2009.04586        -7.48540         3.86686
     2009.04860         0.68666         3.89137
     2009.05133         0.43698         3.87226
     2009.05407        -5.05315         3.89601
     2009.05681        -4.78270         3.86110
     2009.05955        -3.43841         3.88369
     2009.06229       -12.10682         4.50872
     2009.07050       -10.19641         6.54162
     2009.07324        -8.35023         3.85944
     2009.07598        -6.18883         3.88519
     2009.07871        -4.86790         3.88879
     2009.08145        -8.72534         3.90342
     2009.08419       -10.35785         3.86804
     2009.08693        -6.93537         3.86083
     2009.08966       -13.60724         3.89146
     2009.09240       -11.11506         3.91127
     2009.09514       -16.74154         3.89388
     2009.09788        -6.61370         3.88707
     2009.10062        -1.65042         3.87707
     2009.10335        -3.27796         3.96405
     2009.10609        -5.92906         3.87241
     2009.10883         0.78598         3.89693
     2009.11157        -8.83141         3.87873
     2009.11431        -9.07605         3.97528
     2009.11704        -2.64925         3.98096
     2009.11978         4.01452         3.93450
     2009.12252        -1.80767         3.85670
     2009.12526        -4.83961         3.94002
     2009.12799        -6.84314         3.85652
     2009.13073        -2.88129         3.92196
     2009.13347        -6.44653         3.85431
     2009.13621        -7.30905         3.87465
     2009.13895        -6.07519         3.89255
     2009.14168        -8.54259         3.88766
     2009.14442        -2.95747         3.89574
     2009.14716        -4.50743         3.91610
     2009.14990        -3.96324         3.93095
     2009.15264        -0.97900         3.87999
     2009.15537        -9.18470         3.96613
     2009.15811       -10.47530         3.95787
     2009.16085        -4.88739         3.88376
     2009.16359        -6.38741         3.96648
     2009.16632        -2.14579         3.87274
     2009.16906        -5.35958         3.98357
     2009.17180        -5.66401         3.88377
     2009.17454        -8.02979         3.88204
     2009.17728        -0.95588         4.02549
     2009.18001        -8.78751         3.85045
     2009.18275        -9.85947         3.87181
     2009.18549        -9.78921         3.88847
     2009.18823        -7.91044         3.89917
     2009.19097        -6.25702         3.86026
     2009.19370        -9.29505         3.86708
     2009.19644        -9.70217         3.94715
     2009.19918        -6.11869         3.88718
     2009.20192        -5.73271         3.89524
     2009.20465         0.95015         3.86140
     2009.20739        -7.24982         3.83209
     2009.21013       -11.50316         3.85484
     2009.21287       -10.31700         3.84954
     2009.21561        -8.25566         3.86383
     2009.21834       -15.13323         3.87136
     2009.22108        -6.15863         3.85101
     2009.22382        -8.69062         3.83473
     2009.22656       -13.67139         3.86505
     2009.22930         2.13861         3.85885
     2009.23203        -5.83596         3.88911
     2009.23477        -7.13128         3.91635
     2009.23751        -2.17880         3.90077
     2009.24025         1.78012         3.89356
     2009.24298        -3.96283         3.93740
     2009.24572         0.91927         3.89305
     2009.24846       -10.63424         3.93845
     2009.25120        -1.00390         4.03435
     2009.25394         5.23060         3.99892
     2009.25667        -4.36518         3.91388
     2009.25941         0.81780         3.89133
     2009.26215        -5.59009         3.93713
     2009.26489         0.35444         3.92671
     2009.26762        -1.32648         3.90110
     2009.27036         2.40516         4.02394
     2009.27310        -4.19599         3.91878
     2009.27584        -6.25738         3.90209
     2009.27858        -8.35779         3.94878
     2009.28131        -3.58161         3.92331
     2009.28405        -2.51388         3.88829
     2009.28679        -2.82638         3.92552
     2009.28953       -11.06468         3.90663
     2009.29227        -8.96277         3.94125
     2009.29500        -8.26887         3.93646
     2009.29774        -6.33287         3.91996
     2009.30048         1.98038         4.01224
     2009.30322         0.00085         3.90778
     2009.30595         5.32164         3.94204
     2009.30869         3.47157         3.93814
     2009.31143         1.72846         3.96592
     2009.31417        -0.12165         3.97777
     2009.31691        -4.95628         4.03012
     2009.31964        -0.03172         3.94138
     2009.32238        -6.16519         3.94436
     2009.32512         3.41389         4.15134
     2009.32786        -7.05858         4.11573
     2009.33060         2.03286         3.99575
     2009.33333         0.29521         3.86434
     2009.33607        -5.72419         3.93811
     2009.33881        -1.67742         3.98087
     2009.34155         3.94324         3.93849
     2009.34428         0.00906         4.01129
     2009.34702        -7.44192         3.86750
     2009.34976        -7.35550         3.86954
     2009.35250       -12.42844         3.88022
     2009.35524        -4.83884         3.92057
     2009.35797       -11.10424         3.92408
     2009.36071        -2.42339         3.96086
     2009.36345        -6.01485         3.94656
     2009.36619        -5.47362         3.87271
     2009.36893        -9.18990         3.93241
     2009.37166        -8.05943         4.14715
     2009.37440        -7.16301         3.94425
     2009.37714        -6.84838         3.88028
     2009.37988        -6.26680         3.95418
     2009.38261        -5.62686         3.86246
     2009.38535        -4.76005         3.93767
     2009.38809        -6.27330         3.98792
     2009.39083        -3.01171         3.93866
     2009.39357        -4.59143         3.84239
     2009.39630        -6.26744         3.85780
     2009.39904        -1.51715         3.91541
     2009.40178        -4.68337         3.93032
     2009.40452        -2.17957         3.91483
     2009.40726        -0.79939         3.95483
     2009.40999        -6.72184         3.87407
     2009.41273        -8.09387         3.91367
     2009.41547         0.25603         3.92027
     2009.41821        -5.79060         4.02613
     2009.42094        -4.41801         3.93011
     2009.42368        -6.93363         3.91798
     2009.42642        -6.76314         3.88303
     2009.42916        -4.60581         3.93412
     2009.43190        -8.63560         3.93867
     2009.43463        -2.80482         3.93082
     2009.43737        -5.70847         3.89402
     2009.44011        -4.52738         3.89147
     2009.44285        -3.18974         3.85047
     2009.44559        -7.47860         3.87179
     2009.44832        -4.10282         3.92931
     2009.45106        -1.80055         3.99849
     2009.45380        -5.33440         3.91243
     2009.45654        -4.04379         3.93676
     2009.45927        -0.51607         3.88210
     2009.46201        -1.04604         3.91234
     2009.46475        -2.04347         4.01729
     2009.46749        -2.96107         3.98751
     2009.47023         3.97427         3.88708
     2009.47296        -2.79618         3.97342
     2009.47570        -2.18132         3.88502
     2009.47844        -2.42024         3.92681
     2009.48118        -1.35852         4.01808
     2009.48392         0.43323         3.94829
     2009.48665        -3.45714         3.95276
     2009.48939         2.39845         4.02425
     2009.49213         2.72481         4.14238
     2009.49487        -0.36803         3.96793
     2009.49760        -1.92451         3.93480
     2009.50034         1.12135         3.90803
     2009.50308         1.90104         3.88651
     2009.50582        -0.21282         3.87903
     2009.50856        -1.26499         3.88536
     2009.51129         0.81792         3.90352
     2009.51403        -0.45843         3.89933
     2009.51677         3.39543         3.91463
     2009.51951        -3.42685         3.87381
     2009.52225        -5.92685         3.85744
     2009.52498        -2.52399         3.89456
     2009.52772        -5.97364         3.89162
     2009.53046         4.25690         3.90483
     2009.53320         1.39672         3.87385
     2009.53593         0.04000         3.86275
     2009.53867         6.28342         3.86943
     2009.54141        -4.68859         3.89708
     2009.54415        -3.86322         4.09166
     2009.54689        -2.26833         3.90198
     2009.54962         2.32573         3.87044
     2009.55236        -2.18358         3.85331
     2009.55510         0.94326         3.89172
     2009.55784         2.12774         3.88591
     2009.56057         0.88735         4.01134
     2009.56331         0.44314         4.01622
     2009.56605         3.91493         4.08012
     2009.56879         0.16210         3.87962
     2009.57153         0.50564         4.05402
     2009.57426         3.09803         3.89354
     2009.57700         8.71721         3.97243
     2009.57974         5.43831         3.93343
     2009.58248        -1.08931         3.88737
     2009.58522        -3.02988         3.92716
     2009.58795        -4.08773         3.90007
     2009.59069         5.09888         3.93229
     2009.59343         1.09442         4.01482
     2009.59617        11.49700         3.89101
     2009.59890        -3.10019         4.72154
     2009.60164         3.86643         4.21685
     2009.60438        -0.38433         4.04018
     2009.60712        -4.25880         3.92868
     2009.60986         0.87765         3.92858
     2009.61259         4.87679         3.89351
     2009.61533         0.06094         4.01380
     2009.61807         5.87025         3.95947
     2009.62081         4.80185         3.89761
     2009.62355         7.72310         3.99537
     2009.62628         5.61253         4.12812
     2009.62902        13.31760         4.01843
     2009.63176        13.38482         3.93205
     2009.63450         6.99492         3.97061
     2009.63723         6.47582         3.98264
     2009.63997         1.54089         4.04278
     2009.64271         1.32876         4.01574
     2009.64545         5.05513         3.96602
     2009.64819         4.62761         3.98227
     2009.65092         0.12267         3.97042
     2009.65366         3.38206         3.95821
     2009.65640         0.66599         3.89546
     2009.65914         3.12476         3.85442
     2009.66188         3.13915         3.85807
     2009.66461         6.07806         3.91220
     2009.66735         6.23640         3.93447
     2009.67009         4.14005         3.92135
     2009.67283        -2.65452         3.93721
     2009.67556         3.14421         3.93320
     2009.67830         9.84499         4.03916
     2009.68104        -7.55600         3.98764
     2009.68378         0.17993         3.90163
     2009.68652         1.74768         3.89751
     2009.68925         3.51390         3.92548
     2009.69199         1.99235         3.91479
     2009.69473         9.02427         3.99454
     2009.69747         2.42866         3.88895
     2009.70021         5.04501         3.95909
     2009.70294        10.40546         3.93014
     2009.70568         4.03426         4.06254
     2009.70842         8.92241         3.92906
     2009.71116         1.68535         3.95067
     2009.71389         2.26583         4.03722
     2009.71663         9.71002         3.93854
     2009.71937         7.57653         3.93527
     2009.72211         9.80678         3.97009
     2009.72485         7.52029         3.98167
     2009.72758         5.41862         4.07182
     2009.73032        11.05260         3.87572
     2009.73306         5.18595         4.01053
     2009.73580         9.50738         3.91108
     2009.73854        14.76347         3.94490
     2009.74127        10.88396         3.98719
     2009.74401        10.34519         4.10573
     2009.74675         2.69591         3.92182
     2009.74949         6.63221         4.00664
     2009.75222         3.33030         3.93613
     2009.75496         5.38693         3.96451
     2009.75770         1.47436         3.94707
     2009.76044         6.74722         3.91096
     2009.76318         7.41336         3.92535
     2009.76591        13.55596         3.92638
     2009.76865         6.94397         4.02351
     2009.77139        13.13450         3.92716
     2009.77413         9.85971         3.97712
     2009.77687         4.50963         3.91910
     2009.77960        12.87076         3.92381
     2009.78234        18.91272         3.94155
     2009.78508        14.07293         4.01170
     2009.78782         5.54825         4.02765
     2009.79055        -3.04284         4.03763
     2009.79329         3.97569         4.00984
     2009.79603         1.14423         4.09852
     2009.79877         4.72551         4.06664
     2009.80151         9.68745         4.00647
     2009.80424        -4.81566         4.00821
     2009.80698         4.46034         4.03839
     2009.80972         8.24857         4.10483
     2009.81246         4.82472         4.09265
     2009.81520         6.54365         4.09437
     2009.81793         5.22587         4.05825
     2009.82067         8.88049         4.01603
     2009.82341         4.35188         3.98317
     2009.82615        10.50169         3.97396
     2009.82888         6.70085         3.96783
     2009.83162        10.87295         4.05386
     2009.83436         6.50125         3.97162
     2009.83710        -3.83101         4.02735
     2009.83984         0.86952         4.15182
     2009.84257        13.00618         4.10638
     2009.84531         4.01318         4.25502
     2009.84805         1.97098         4.04481
     2009.85079         4.75768         3.99066
     2009.85352         4.15644         4.05249
     2009.85626         2.49694         4.00932
     2009.85900         3.07830         4.06362
     2009.86174         7.03278         3.99968
     2009.86448         8.27150         4.17420
     2009.86721        12.97058         4.10139
     2009.86995         7.60080         4.07040
     2009.87269        14.10155         4.05445
     2009.87543         9.72664         4.07617
     2009.87817        11.04191         4.09531
     2009.88090        14.60943         4.30749
     2009.88364         5.68750         4.27745
     2009.88638         3.50335         4.05868
     2009.88912         7.40411         3.95364
     2009.89185         6.49999         4.10714
     2009.89459         3.88695         4.00069
     2009.89733        -2.68944         4.16111
     2009.90007        -5.48427         4.00282
     2009.90281         4.99619         3.91401
     2009.90554        12.52318         4.04411
     2009.90828         9.40306         4.03472
     2009.91102        -0.15814         3.96650
     2009.91376         9.01693         3.89030
     2009.91650         5.44592         3.87528
     2009.91923        -0.21214         3.91204
     2009.92197         4.04725         3.89142
     2009.92471         1.69611         3.86539
     2009.92745         3.82446         3.90703
     2009.93018         0.19942         4.03969
     2009.93292         4.98327         3.88949
     2009.93566         0.76305         3.91907
     2009.93840         4.07763         3.97820
     2009.94114         6.62522         3.99876
     2009.94387         5.39391         4.09768
     2009.94661         4.56279         4.00543
     2009.94935         5.63470         3.92738
     2009.95209         0.08305         4.49292
     2009.95483         4.97007         3.88316
     2009.95756         1.33289         3.90799
     2009.96030        -0.59604         3.98597
     2009.96304        -3.69180         3.92353
     2009.96578         4.87542         4.00316
     2009.96851         3.16471         3.97934
     2009.97125         5.57294         4.04572
     2009.97399         3.63885         4.00809
     2009.97673        -5.03619         3.88206
     2009.97947         1.24197         3.93977
     2009.98220        -4.06232         3.91598
     2009.98494        -1.23603         3.86806
     2009.98768         3.74047         3.94064
     2009.99042         2.43634         3.86243
     2009.99316         5.93075         3.96317
     2009.99589        -0.62068         3.88835
     2009.99863         0.03574         3.97414
     2010.00137        -2.74715         4.50455
     2010.00411        -8.68420         3.89809
     2010.00684         3.04865         3.89612
     2010.00958        -1.44379         3.87449
     2010.01232        -3.42735         4.01650
     2010.01506        -0.57637         3.88983
     2010.01780        -2.34902         3.88539
     2010.02053         0.20702         3.89265
     2010.02327         7.40179         4.14496
     2010.02601        -2.32495         3.90549
     2010.02875        -0.13306         3.90378
     2010.03149        -1.13067         3.89565
     2010.03422         0.16425         3.96540
     2010.03696        -2.86755         4.10046
     2010.03970        -1.20321         3.99037
     2010.04244         1.20296         3.89285
     2010.04517         6.71913         3.88912
     2010.04791        10.11588         4.26588
     2010.05065         7.41493         3.95318
     2010.05339        12.08103         4.02248
     2010.05613         2.89299         4.04607
     2010.05886         3.05953         3.87855
     2010.06160        -2.44367         3.87528
     2010.06434        -0.78738         3.88760
     2010.06708         0.54557         3.86619
     2010.06982        -1.60265         3.96279
     2010.07255        -2.54559         4.25881
     2010.07529        -6.96837         4.02294
     2010.07803        -4.76663         3.88002
     2010.08077        -1.44707         3.87823
     2010.08350        -0.66984         3.87585
     2010.08624        -0.10730         3.87216
     2010.08898         0.63428         4.01332
     2010.09172         0.80135         3.94945
     2010.09446        -3.55901         3.97244
     2010.09719        -3.23648         3.97222
     2010.09993        -5.59807         3.95829
     2010.10267        -5.35920         3.94689
     2010.10541        -7.02125         4.02985
     2010.10815         0.20377         4.00080
     2010.11088        -6.56590         3.95604
     2010.11362        10.07219         3.91052
     2010.11636        -2.64669         3.96790
     2010.11910        -2.33755         3.88383
     2010.12183        -4.65339         4.05126
     2010.12457        -3.36477         3.93386
     2010.12731        -2.17460         3.97889
     2010.13005         2.83030         4.04619
     2010.13279         8.73819         3.96275
     2010.13552         0.02065         3.93679
     2010.13826        -1.26382         3.88449
     2010.14100        -0.58306         3.88653
     2010.14374         1.84236         4.03587
     2010.14648        -1.54122         4.11330
     2010.14921         3.08496         3.92207
     2010.15195        -2.61616         4.07320
     2010.15469         2.69547         4.01009
     2010.15743         1.26466         4.92120
     2010.16016        -0.65363         3.86462
     2010.16290        -1.79097         3.95313
     2010.16564         1.38418         3.89259
     2010.16838         2.26805         3.96922
     2010.17112         3.56298         4.06575
     2010.17385         9.18883         4.39612
     2010.17659         1.13924         3.87366
     2010.17933         1.18397         3.85856
     2010.18207         3.53030         3.84620
     2010.18480         2.06947         3.86305
     2010.18754         2.13077         3.83538
     2010.19028         2.27904         3.84286
     2010.19302        10.27885         3.88676
     2010.19576         2.56129         4.51661
     2010.19849        -2.48628         3.86542
     2010.20123         3.37107         3.95490
     2010.20397         6.28965         3.92776
     2010.20671         3.68897         3.93827
     2010.20945       -12.75570         7.31090
     2010.22861        -1.67110         4.89005
     2010.23135         2.73027         4.06076
     2010.23409        -9.63359         4.05588
     2010.23682        -0.50075         4.08498
     2010.23956         7.31319         3.92856
     2010.24230         4.95383         4.07905
     2010.24504         8.57114         4.05266
     2010.24778         1.12453         3.93608
     2010.25051         5.82160         4.05267
     2010.25599        12.48706         3.94839
     2010.25873         6.60266         3.93769
     2010.26146         8.77793         4.07218
     2010.26420         9.22407         4.13856
     2010.26694         9.01926         3.92410
     2010.26968         2.39459         4.00131
     2010.27242         2.93089         4.01298
     2010.27515         4.28123         3.94466
     2010.27789         4.60147         4.05007
     2010.28063         1.79734         3.87489
     2010.28337         3.50184         4.01792
     2010.28611         3.66466         4.02452
     2010.28884         9.76757         3.89374
     2010.29158         2.37138         3.97267
     2010.29432         3.71855         3.99532
     2010.29706         8.11256         3.92259
     2010.29979         7.08361         3.94779
     2010.30253        13.78040         4.22217
     2010.30527        14.45005         4.54332
     2010.30801        12.21290         4.15421
     2010.31075        10.16865         3.89517
     2010.31348         7.99886         3.90959
     2010.31622         7.95486         3.88740
     2010.31896         8.38478         4.03093
     2010.32170        11.13560         3.96471
     2010.32444         7.36409         3.96423
     2010.32717         5.40956         3.90740
     2010.32991         5.49779         7.45322
     2010.33265         9.78809         6.78484
     2010.33539        12.93538         7.08728
     2010.33812         5.48864         6.82898
     2010.34086         4.33503         6.74952
     2010.34360         8.08204         6.89510
     2010.34634         2.34645         6.74940
     2010.34908         5.07110         6.70358
     2010.35181         2.80736         7.34023
     2010.35455         6.09130         6.71997
     2010.35729         0.17970         6.76225
     2010.36003         6.06917         6.83020
     2010.36277         5.38670         6.75870
     2010.36550         3.46870         7.15764
     2010.36824         7.75148         7.15571
     2010.37098        12.20434         6.73409
     2010.37372        -1.61891         6.88008
     2010.37645         2.04377         6.71067
     2010.37919        10.13275         7.12493
     2010.38193         3.79000         6.97677
     2010.38467         2.55065         6.94753
     2010.38741         2.45529         6.80603
     2010.39014         3.36964         6.79917
     2010.39288        -0.98608         6.79772
     2010.39562        -0.81056         6.97905
     2010.39836        -2.20522         6.97885
     2010.40110         0.05994         6.66383
     2010.40383         2.81604         6.67216
     2010.40657        -0.65853         6.67792
     2010.40931        -1.10797         6.66906
     2010.41205         0.54012         6.83208
     2010.41478         6.16785         6.67092
     2010.41752         3.68448         7.47933
     2010.42026         2.50907         6.70275
     2010.42300         6.21223         6.65335
     2010.42574        -1.81060         6.67706
     2010.42847        -1.15631         6.67945
     2010.43121        -2.64760         6.63423
     2010.43395        -0.98920         6.66556
     2010.43669        -0.59693         6.84814
     2010.43943         5.92335         6.65245
     2010.44216        -2.09393         6.65891
     2010.44490        -3.01319         6.66183
     2010.44764        -1.61615         6.81050
     2010.45038         7.76001         6.64044
     2010.45311         7.36058         6.64140
     2010.45585         2.45673         6.67136
     2010.45859         4.27317         6.80447
     2010.46133        -4.15160         6.81429
     2010.46407         2.42546         6.65798
     2010.46680        -0.95288         6.65162
     2010.46954         1.56440         6.67031
     2010.47228         6.43130         6.65633
     2010.47502        -0.06950         6.67388
     2010.47775         3.21494         6.85426
     2010.48049         1.08065         6.83878
     2010.48323         3.37061         7.00776
     2010.48597         3.83481         6.66604
     2010.48871         4.49012         6.65723
     2010.49144         0.67767         6.61535
     2010.49418        -4.61385         6.62432
     2010.49692         4.19145         6.62876
     2010.49966        -0.90976         6.65540
     2010.50240         7.46098         6.62865
     2010.50513         1.79308         6.92975
     2010.50787         5.19893         6.75419
     2010.51061         4.54465         6.63376
     2010.51335         4.94812         6.62159
     2010.51608         7.66062         6.62581
     2010.51882         4.31589         6.64696
     2010.52156         3.63417         6.88518
     2010.52430         3.70217         7.16319
     2010.52704         6.05053         6.63572
     2010.52977         7.25420         6.62105
     2010.53251        -0.54632         6.63528
     2010.53525         1.29725         6.68406
     2010.53799         7.75658         6.70627
     2010.54073         7.27652         6.86446
     2010.54346         1.34454         7.53155
     2010.54620         5.45888         6.62634
     2010.54894         5.28391         6.67312
     2010.55168         3.89547         6.69665
     2010.55441        10.03162         6.69102
     2010.55715         3.68836         6.77035
     2010.55989         5.96723         7.36802
     2010.56263         8.24286         6.65963
     2010.56537         9.78006         6.66842
     2010.56810         7.44613         6.67458
     2010.57084         7.59864         6.64450
     2010.57358         5.63355         6.79932
     2010.57632         5.48724         6.91860
     2010.57906         3.33255         7.20601
     2010.58179        11.36565         6.67269
     2010.58453         5.60773         6.76284
     2010.58727         6.79157         6.80992
     2010.59001         9.48484         6.76532
     2010.59274        11.27079         6.67426
     2010.59548        13.39690         7.08533
     2010.59822        13.50465         6.84237
     2010.60096         6.17318         6.62707
     2010.60370         9.63375         6.64308
     2010.60643         9.62128         6.65145
     2010.60917         6.50729         6.81909
     2010.61191        13.56423         6.96399
     2010.61465        10.64911         6.65795
     2010.61739         1.09781         6.61506
     2010.62012         9.16677         6.67683
     2010.62286        11.60620         6.66083
     2010.62560         5.04951         6.67393
     2010.62834         7.03215         6.69305
     2010.63107         7.85913         7.62510
     2010.63381         6.92873         6.66934
     2010.63655        10.12093         6.69510
     2010.63929         4.77883         6.68111
     2010.64203         4.33672         6.70659
     2010.64476         3.65380         6.80538
     2010.64750         6.26881         6.67604
     2010.65024         6.02926         7.60986
     2010.65298        13.18586         6.89865
     2010.65572         2.07368         6.58473
     2010.65845        12.29917         6.56322
     2010.66119        10.21577         6.64428
     2010.66393         5.65899         6.67512
     2010.66667        10.26169         6.72603
     2010.66940         6.58637         6.61215
     2010.67214         4.89102         6.60606
     2010.67488        12.75196         6.67547
     2010.67762        10.36577         6.54778
     2010.68036        12.39422         6.57621
     2010.68309        11.83517         6.61418
     2010.68583         3.93683         6.72173
     2010.68857         5.91466         6.90492
     2010.69131         4.17650         6.69570
     2010.69405         8.85156         6.70332
     2010.69678        10.51122         6.57030
     2010.69952        13.63081         6.63706
     2010.70226         9.47286         6.92672
     2010.70500         9.42236         6.73647
     2010.70773        11.34373         6.59304
     2010.71047        11.81918         6.57957
     2010.71321        12.57842         6.75063
     2010.71595        12.70532         6.79578
     2010.71869         4.91495         6.61685
     2010.72142        12.63604         8.06548
     2010.72416         2.52375         6.74092
     2010.72690         3.92752         7.06770
     2010.72964         5.16218         6.64583
     2010.73238         5.28864         6.66711
     2010.73511        14.64632         6.78627
     2010.73785         2.31226         6.94689
     2010.74059        15.24037         6.79222
     2010.74333        10.85064         6.66796
     2010.74606        13.32820         6.77592
     2010.74880        11.51181         6.86486
     2010.75154        10.06875         6.62878
     2010.75428         7.99135         7.00669
     2010.75702         3.28541         6.86409
     2010.75975         5.84133         6.71151
     2010.76249        -3.38727         6.79768
     2010.76523        12.59833         6.77188
     2010.76797        10.95632         7.04254
     2010.77070         2.72412         6.73881
     2010.77344        11.50788         6.67503
     2010.77618         7.65774         6.66735
     2010.77892         3.41395         6.76169
     2010.78166         2.18575         6.56215
     2010.78439         8.31752         6.82528
     2010.78713        12.70369         6.65696
     2010.78987         5.44027         6.80050
     2010.79261         8.56674         6.71640
     2010.79535         8.46817         6.77052
     2010.79808         2.77874         6.67353
     2010.80082         5.28129         6.63002
     2010.80356        13.81961         6.81419
     2010.80630         2.21297         6.94040
     2010.80903         2.91425         6.88476
     2010.81177        11.67090         7.19290
     2010.81451         9.02789         7.09309
     2010.81725        14.87694         6.64702
     2010.81999        14.19749         6.87193
     2010.82272        15.52319         6.69533
     2010.82546        10.17129         6.81934
     2010.82820         5.21164         6.93436
     2010.83094        13.68068         7.04107
     2010.83368        -1.23130         7.43004
     2010.83641         3.71894         6.77018
     2010.83915        14.65433         6.64954
     2010.84189         7.10724         6.94963
     2010.84463        11.86101         6.72323
     2010.84736        14.98819         6.82553
     2010.85010        11.46677         6.77695
     2010.85284         9.40526         6.67529
     2010.85558         8.04318         6.67666
     2010.85832         1.77989         6.62220
     2010.86105        -0.66038         7.14999
     2010.86379        -0.17677         6.66358
     2010.86653        -1.95936         6.72238
     2010.86927         6.28563         6.66807
     2010.87201         3.61561         6.67424
     2010.87474         3.87311         6.64854
     2010.87748         5.34105         6.80266
     2010.88022        14.02334         7.78068
     2010.88296        -0.13102         6.74727
     2010.88569         0.77187         6.56587
     2010.88843         1.14578         7.15336
     2010.89117         8.28652         7.02410
     2010.89391         7.28257         6.56658
     2010.89665         6.72360         6.70544
     2010.89938        -0.01919         6.69839
     2010.90212         7.41103         6.68357
     2010.90486         8.49442         6.59859
     2010.90760         6.48755         6.57080
     2010.91034        -4.47286         6.83153
     2010.91307         3.81752         6.53212
     2010.91581         6.29462         6.55016
     2010.91855        -1.86414         6.92686
     2010.92129         3.69259         6.54488
     2010.92402         2.25223         6.53393
     2010.92676         2.21385         6.80981
     2010.92950         1.32140         6.56665
     2010.93224         2.68121         6.63372
     2010.93498         7.13457         6.78959
     2010.93771         5.16728         6.71852
     2010.94045         8.24372         6.72247
     2010.94319        -0.08704         6.63066
     2010.94593        -0.63731         6.51363
     2010.94867        -1.42273         6.61487
     2010.95140        10.35133         7.53018
     2010.95414         2.81381         6.84559
     2010.95688        -6.02111         6.55462
     2010.95962         2.93663         6.78900
     2010.96235         1.42176         6.53648
     2010.96509         5.52624         6.66166
     2010.96783         4.00158         6.67211
     2010.97057         1.03110         6.60392
     2010.97331         2.70506         6.68561
     2010.97604        -7.30712         6.65452
     2010.97878         0.45899         6.54420
     2010.98152         0.80648         6.54316
     2010.98426        -0.90869         6.73346
     2010.98700         4.84016         6.73056
     2010.98973        10.74222         6.75326
     2010.99247        10.76925         7.06971
     2010.99521         8.63150         7.15982
     2010.99795         4.48336         6.64622
     2011.00068         0.26952         6.53314
     2011.00342         0.58330         6.74077
     2011.00616        -1.55774         6.52525
     2011.00890        -2.60296         7.64885
     2011.01164        -1.16372         6.52896
     2011.01437        -0.28858         6.68605
     2011.01711         1.80938         6.85108
     2011.01985         1.53118         6.79244
     2011.02259        -1.00175         6.53610
     2011.02533        -3.02206         6.67415
     2011.02806        -0.46672         7.14081
     2011.03080         3.68870         6.62731
     2011.03354         4.88488         6.48682
     2011.03628       -14.57999         6.53887
     2011.03901        -5.34796         6.52336
     2011.04175         1.66555         6.51262
     2011.04449         5.52470         6.51156
     2011.04723         8.49454         6.65358
     2011.04997         1.04099         6.68765
     2011.05270        -2.13143         6.53391
     2011.05544         3.49381         6.69394
     2011.05818         2.30625         6.73420
     2011.06092         2.69950         6.62186
     2011.06366         4.28087         7.05738
     2011.06639         0.07569         6.51082
     2011.06913        -0.33060         7.09677
     2011.07187         2.97019         6.55468
     2011.07461        -4.68736         6.53693
     2011.07734        -2.61784         6.51913
     2011.08008        -3.36028         6.52712
     2011.08282        -3.06778         6.67164
     2011.08556        -7.92490         6.58493
     2011.08830        -4.17662         6.56133
     2011.09103        -4.55063         6.74157
     2011.09377        -2.27647         6.51026
     2011.09651         0.82887         6.71297
     2011.09925         1.60532         6.54883
     2011.10198         3.18451         7.64668
     2011.10472        -3.46757         6.51655
     2011.10746        -3.08923         6.57348
     2011.11020         2.06884         6.63879
     2011.11294         1.65939         6.53853
     2011.11567         7.04049         6.88404
     2011.11841         8.94896         7.05377
     2011.12115        12.30041         7.42311
     2011.12389         6.78848         6.93189
     2011.12663        -0.58272         6.81079
     2011.12936         0.46725         6.64155
     2011.13210         0.88454         6.63571
     2011.13484         0.77621         6.51360
     2011.13758         2.16662         6.59409
     2011.14031         5.66642         6.50575
     2011.14305         5.29663         6.62914
     2011.14579         2.00744         6.61585
     2011.14853         2.12300         6.53286
     2011.15127         1.05511         6.51764
     2011.15400         2.83406         6.58246
     2011.15674         5.38176         6.54875
     2011.15948        12.33413         6.59824
     2011.16222         3.19345         6.62736
     2011.16496        -1.89767         6.52251
     2011.16769        -8.50350         6.52358
     2011.17043       -11.31957         6.52234
     2011.17317        -6.77421         6.96087
     2011.17591        -0.86440         6.54603
     2011.17864         0.28096         6.55662
     2011.18138        -2.10409         6.52375
     2011.18412        -7.19961         6.52820
     2011.18686         5.43996         6.56244
     2011.18960        -2.95524         6.56178
     2011.19233        -4.17939         6.52862
     2011.19507         5.41123         6.66359
     2011.19781        -1.81347         6.66078
     2011.20055        -1.54802         6.53762
     2011.20329         7.62746         6.85999
     2011.20602        -3.76260         6.66708
     2011.20876        -3.00911         6.79404
     2011.21150        -1.81159         6.59239
     2011.21424        -4.26886         6.59159
     2011.21697         2.01279         6.69623
     2011.21971         1.85424         6.82659
     2011.22245        -2.69456         6.68072
     2011.22519        -1.56901         6.74507
     2011.22793        -5.63230         7.01724
     2011.23066        -5.61139         6.68121
     2011.23340        -1.01937         6.71929
     2011.23614        -4.71121         6.68884
     2011.23888        -6.22398         6.56792
     2011.24162         2.43880         6.57022
     2011.24435         1.28645         7.14348
     2011.24709         3.74954         6.58169
     2011.24983         8.48437         6.78997
     2011.25257         2.79607         6.67512
     2011.25530         1.84510         7.20808
     2011.25804         6.90903         6.87345
     2011.26078         5.77869         6.92667
     2011.26352         1.14172         6.56589
     2011.26626        -0.69748         6.68870
     2011.26899         3.95569         6.54864
     2011.27173         3.29063         6.81739
     2011.27447        13.87618         7.05058
     2011.27721         8.29454         7.10187
     2011.27995         1.44720         6.54459
     2011.28268        -0.74790         6.57938
     2011.28542        -1.85073         6.58479
     2011.28816       -10.00890         6.57425
     2011.29090         3.21778         6.53029
     2011.29363         1.09541         6.54530
     2011.29637         2.03487         6.84908
     2011.29911         1.37604         6.56612
     2011.30185         3.08560         6.76274
     2011.30459         0.76637         6.53645
     2011.30732         1.90934         6.56539
     2011.31006         1.32670         6.56974
     2011.31280        -0.12415         6.96166
     2011.31554         1.11405         6.57018
     2011.31828        -4.82146         6.72028
     2011.32101         4.71365         6.54774
     2011.32375        -0.20643         6.56612
     2011.32649        -3.68310         6.57828
     2011.32923        -9.94363         6.57978
     2011.33196         0.63663         6.57045
     2011.33470        -6.65035         6.62015
     2011.33744        -3.50306         6.67540
     2011.34018        -1.70391         6.94645
     2011.34292        -1.13111         6.72522
     2011.34565        -2.27282         6.68392
     2011.34839        -4.75024         6.64118
     2011.35113        -5.43614         7.01199
     2011.35387        -5.79334         6.69126
     2011.35661        -8.27266         6.56054
     2011.35934        -9.78137         6.53175
     2011.36208        -7.76022         6.67267
     2011.36482        -2.77193         6.69265
     2011.36756        -7.66906         6.71482
     2011.37029        -2.66127         6.70841
     2011.37303        -7.89055         6.72175
     2011.37577        -5.84032         6.70204
     2011.37851       -10.80333         6.81753
     2011.38125        -5.99922         6.71473
     2011.38398        -4.23652         6.70742
     2011.38672        -4.71959         6.71562
     2011.38946        -2.53309         6.73472
     2011.39220        -3.02101         6.68253
     2011.39493        -0.90292         6.78804
     2011.39767        -8.50109         7.10789
     2011.40041        -1.26707         6.71707
     2011.40315        -4.61044         6.70478
     2011.40589         0.66552         6.66870
     2011.40862         0.29772         6.64845
     2011.41136        -1.98917         6.66316
     2011.41410         0.13118         6.69845
     2011.41684        -1.33803         7.00216
     2011.41958        -4.56848         6.83555
     2011.42231       -14.57119         6.93397
     2011.42505        -1.03587         6.70241
     2011.42779         0.61923         6.69938
     2011.43053        -2.29052         6.95417
     2011.43326        -2.28727         7.16815
     2011.43600        -5.88765         6.70289
     2011.43874        -3.69934         6.68393
     2011.44148        -3.34126         6.68366
     2011.44695        -7.10708         6.68531
     2011.44969        -0.97135         8.25606
     2011.45243        -4.14392         6.82725
     2011.45517        -3.17336         6.69823
     2011.45791        -9.48557         6.70546
     2011.46064         2.82265         6.72764
     2011.46338        -3.96358         6.80800
     2011.46612        -4.32036         6.89280
     2011.46886         2.75251         6.73349
     2011.47159        -1.49980         6.70030
     2011.47433        -1.62255         7.01283
     2011.47707        -0.52166         6.75708
     2011.47981        -0.52608         6.79661
     2011.48255        -4.35645         6.90160
     2011.48528         8.43508         6.73649
     2011.48802         7.80533         6.74193
     2011.49076         1.86037         6.74061
     2011.49350        -1.63625         6.74783
     2011.49624        -0.41726         6.76585
     2011.49897         5.61011         7.08743
     2011.50171         0.39699         6.75523
     2011.50445        -1.64785         6.73373
     2011.50719        -0.02074         6.73945
     2011.50992         6.14257         6.73897
     2011.51266         5.35362         6.74532
     2011.51540         6.39200         6.73582
     2011.51814         5.03207         6.73346
     2011.52088         4.69805         6.71911
     2011.52361         4.06973         6.91075
     2011.52635         2.70009         6.71822
     2011.52909         7.54412         6.72415
     2011.53183         9.12728         6.72148
     2011.53457        -0.42954         6.82606
     2011.53730         8.03354         6.92022
     2011.54004         3.79225         6.70336
     2011.54278         6.74790         6.82926
     2011.54552         1.24884         6.72025
     2011.54825         3.09118         6.78918
     2011.55099         8.77251         6.91049
     2011.55373         3.60104         6.85456
     2011.55647         6.50764         6.71959
     2011.55921         3.26302         6.78295
     2011.56194        11.27397         6.77544
     2011.56468         3.95291         6.69657
     2011.56742         7.18686         6.68899
     2011.57016         1.55488         7.03366
     2011.57290         2.70942         6.71813
     2011.57563         4.38397         6.70954
     2011.57837        10.23797         6.69204
     2011.58111         0.81774         6.66509
     2011.58385        13.54961         6.92090
     2011.58658         9.09569         6.91171
     2011.58932         9.98271         6.82856
     2011.59206        10.13176         6.85220
     2011.59480        11.57136         6.79110
     2011.59754        10.27596         6.66199
     2011.60027        17.03183         6.72578
     2011.60301        12.96080         6.84532
     2011.60575        16.93730         7.18311
     2011.60849        14.03278         7.06291
     2011.61123         8.63593         7.06957
     2011.61396        10.00747         6.82403
     2011.61670         9.13961         6.86715
     2011.61944         7.11705         6.85395
     2011.62218        10.77015         6.98290
     2011.62491        11.03859         7.01233
     2011.62765         9.21772         6.88296
     2011.63039        17.95562         6.74242
     2011.63313         7.57809         6.80704
     2011.63587        12.25528         6.75904
     2011.63860        11.48590         6.78835
     2011.64134         5.78948         7.45242
     2011.64408        14.75666         6.90913
     2011.64682        14.13799         6.79598
     2011.64956        15.36596         7.15273
     2011.65229        11.61707         6.85529
     2011.65503         8.65683         6.88011
     2011.65777        15.33648         6.98780
     2011.66051        13.69139         6.93903
     2011.66324        12.38734         6.81483
     2011.66598         7.99483         7.09035
     2011.66872        15.25252         6.93878
     2011.67146        16.37773         6.72702
     2011.67420        12.81328         6.74904
     2011.67693        14.97798         6.74723
     2011.67967        11.72979         6.90246
     2011.68241         9.79919         6.89274
     2011.68515        13.26509         6.89895
     2011.68789         9.18701         6.82089
     2011.69062        14.50135         6.88150
     2011.69336         9.65320         6.85385
     2011.69610        11.21064         6.87301
     2011.69884        13.50624         7.09507
     2011.70157         8.61328         6.85163
     2011.70431        15.45628         6.79993
     2011.70705        17.67496         6.98474
     2011.70979         8.04909         6.93069
     2011.71253        15.11502         7.72484
     2011.71526        12.67888         7.00739
     2011.71800         8.96816         6.91572
     2011.72074        17.48726         6.81841
     2011.72348        11.20191         6.76156
     2011.72621         9.11880         6.76165
     2011.72895        16.51940         6.75359
     2011.73169        13.53941         7.08424
     2011.73443         8.51921         6.92937
     2011.73717         6.20164         6.99420
     2011.73990        12.75791         6.85600
     2011.74264        14.29607         6.89916
     2011.74264        21.69413         7.10727
     2011.74538        16.45534         7.11896
     2011.75086        10.42020         6.97873
     2011.75359        14.27556         6.98526
     2011.75633        10.88597         7.10525
     2011.75907         9.53481         7.64968
     2011.76454        10.54205         6.91349
     2011.76728        10.03927         6.96873
     2011.77002        10.64004         7.05074
     2011.77276        10.24344         6.88535
     2011.77550         3.83527         6.85194
     2011.77823        12.30197         9.38050
     2011.78371        16.60364        15.20544
     2011.78645        16.32447         6.80818
     2011.78919         6.85397         6.75678
     2011.79192        11.07323         6.76169
     2011.79466         7.43735         6.86226
     2011.79740        16.82444         6.88581
     2011.80287         7.88039         6.79017
     2011.80561         4.95837         6.72884
     2011.80835         9.47133         6.97025
     2011.81109         4.96622         6.84405
     2011.81383         2.60223         7.02933
     2011.81656         3.15501         8.12114
     2011.82204        12.08639         6.82495
     2011.82478        11.12542         6.91634
     2011.82752        -0.75804         6.82992
     2011.83025         7.09655         6.74124
     2011.83299         3.29664         6.71027
     2011.83573         2.00401         7.00432
     2011.84120         7.75756         8.95964
     2011.84394         3.25743         6.73046
     2011.84668         2.79614         6.84086
     2011.84942         7.59127         7.02957
     2011.85216         6.04641         6.69859
     2011.85489         2.87095         6.81764
     2011.86037        13.99041         6.72770
     2011.86311        21.15416         6.72053
     2011.86585         7.24798         7.00718
     2011.86858        15.41157         6.84178
     2011.87132        10.40641         6.69722
     2011.87406         5.75417         6.71191
     2011.87953        18.84383         6.77337
     2011.88227        10.09771         6.91499
     2011.88501         2.43954         6.84283
     2011.88775        -5.84642         6.88300
     2011.89049         7.79513         6.87763
     2011.89322         6.71599         7.14445
     2011.89870        10.74735         6.84262
     2011.90144        -1.83751         6.87850
     2011.90418         7.10732         7.05128
     2011.90691        10.44075         6.86956
     2011.90965        11.53397         6.85260
     2011.91239        15.91850         7.01582
     2011.91786         5.34430         7.15653
     2011.92060        -1.62510         7.01569
     2011.92334         2.92991         6.84444
     2011.92608         9.66838         7.32309
     2011.92882         7.50785         6.84098
     2011.93155         4.05598         7.47311
     2011.93703         0.06676        11.82521
     2011.93977         1.35719         6.82605
     2011.94251        13.17878         6.93590
     2011.94524         0.88815         6.84117
     2011.94798        11.06681         6.87669
     2011.95072         9.51102         6.86000
     2011.95346        10.19759         7.03638
     2011.95619         4.64373         6.99435
     2011.95893         2.16771         6.72534
     2011.96167         6.34492         7.35562
     2011.96441         9.89573         6.69437
     2011.96715         8.36333         6.72975
     2011.96988         8.10118         6.68912
     2011.97262         4.60895         6.71309
     2011.97536        -3.15662         6.66163
     2011.97810         7.80294         7.97526
     2012.00821         1.65774         8.17921
     2012.01369        11.18213         6.71809
     2012.01643         3.63236         6.69421
     2012.01916         4.18811         6.63124
     2012.02190         4.81350         6.56971
     2012.02464        11.85227         6.79163
     2012.02738         5.81004         6.57896
     2012.03285         6.86150         6.83271
     2012.03559         8.32746         6.75148
     2012.03833         0.70342         6.62987
     2012.04107        11.21912         6.59179
     2012.04381        13.80593         6.83118
     2012.04654         4.68542         6.83840
     2012.05202        12.67510         6.63289
     2012.05476        15.62405         6.86411
     2012.05749         6.15342         6.71125
     2012.06023         6.23930         7.44616
     2012.06297        -1.64792         6.58588
     2012.06571        12.92138         6.61531
     2012.07118         9.82597         6.70580
     2012.07392         3.35059         6.56794
     2012.07666        14.22231         6.81408
     2012.07940         8.09868         6.66720
     2012.08214         4.11906         6.69175
     2012.08487        13.42655         6.74797
     2012.09035         4.96409         6.82153
     2012.09309        11.10970         6.65004
     2012.09582        12.21709         6.57469
     2012.09856        11.97596         6.72267
     2012.10130         2.64661         6.90959
     2012.10404         3.19890         6.68194
     2012.10951        14.10928         6.76372
     2012.11225         3.81836         6.70518
     2012.11499         8.11538         6.73141
     2012.11773        12.13246         6.68904
     2012.12047        13.58385         6.66093
     2012.12320        11.13571         6.67803
     2012.12868        -2.76835         6.95719
     2012.15058        16.14241         6.66515
     2012.15332         4.22047         6.71610
     2012.15606         5.75301         6.79604
     2012.15880         0.77863         6.84681
     2012.16153         7.95507         6.72944
     2012.16701         9.90631         6.78381
     2012.16975         6.63059         6.71061
     2012.17248         4.40297         6.69611
     2012.17522         9.00864         6.74331
     2012.17796         1.65092         6.71353
     2012.18070         2.18752         6.88106
     2012.18617         3.39484         6.99249
     2012.18891         0.43201         6.77678
     2012.19165         8.80887         7.30574
     2012.19439         2.59700        14.34971
     2012.19713        19.38045         6.76383
     2012.19986         4.40578         6.97115
     2012.20534        13.21435         6.69748
     2012.20808        11.53452         6.76156
     2012.21081         4.72578         6.74406
     2012.21355         5.34307         6.76507
     2012.21629         6.77813         6.79209
     2012.21903         2.59183         6.76802
     2012.22450         2.44140         6.75891
     2012.22724         7.91655         6.78030
     2012.22998         6.05914         6.77287
     2012.23272         6.66147         6.86156
     2012.23546         6.21293         6.81061
     2012.23819         7.89855         7.08586
     2012.24367        11.18632         6.74936
     2012.24641         7.80647         6.75093
     2012.24914         7.89131         6.74409
     2012.25188         7.18139         6.64167
     2012.25462         5.03949         6.91444
     2012.25736         9.69519         6.57691
     2012.26283         1.63169         6.63804
     2012.26557         3.19776         6.62979
     2012.26831         8.23151         6.94369
     2012.27105         3.06930         6.74401
     2012.27379         3.25355         6.88437
     2012.27652         5.02951         7.00664
     2012.28200        -2.12461        13.93697
     2012.28474         5.18928         6.62129
     2012.28747         1.09062         6.60369
     2012.29021         5.98049         6.77186
     2012.29295        -0.55430         6.81557
     2012.29569        -1.02572         6.76638
     2012.30116         4.32820         6.62476
     2012.30390        -2.59486         6.60702
     2012.30664        -0.54957         6.55665
     2012.30938         7.00989         6.59733
     2012.31211        10.27518         6.81972
     2012.31485         5.90432         6.77555
     2012.32033         3.98833         6.66174
     2012.32307        -2.52407         6.73793
     2012.32580         0.65433         6.63164
     2012.32854         7.51532         6.63702
     2012.33128         4.75422         6.70542
     2012.33402         2.77489         6.69997
     2012.33949         1.75885         6.56874
     2012.34223        -3.13054         6.73679
     2012.34497        -5.92694         6.96613
     2012.34771        -0.75777         6.74912
     2012.35044        -3.50545         6.80055
     2012.35318         7.44930         7.15672
     2012.35592         2.87991        10.83791
     2012.35866         0.25115        14.70357
     2012.36140        -0.63697         6.74401
     2012.36413        -0.62420         6.75726
     2012.36687        -2.44858         6.80652
     2012.36961        -4.77391         6.58094
     2012.37235         1.24755         6.56756
     2012.37782         6.01995         6.67184
     2012.38056        -5.48021         6.74566
     2012.38330        -1.96651         6.75785
     2012.38604         0.83683         6.85065
     2012.38877         1.45719         6.87566
     2012.39151         0.76239         6.69318
     2012.39699         0.27285         6.73957
     2012.39973        -0.35361         6.74303
     2012.40246         6.41600         6.82926
     2012.40520         2.05432         6.68712
     2012.40794         1.43043         6.54273
     2012.41068         4.48301         6.56877
     2012.41615         0.20837         6.62985
     2012.41889         3.68846         7.77770
     2012.42163        -1.40537         7.97127
     2012.42437         8.10557         6.98856
     2012.42710        -0.45515         6.95946
     2012.42984         5.69201         6.60665
     2012.43532         4.00804         6.54024
     2012.43806         1.85541         6.55379
     2012.44079         0.81806         6.57630
     2012.44353         3.60389         6.60481
     2012.44627         3.34343         7.04607
     2012.44901         4.62895         6.57186
     2012.45448         3.38584         6.58446
     2012.45722         4.22484         6.60960
     2012.45996         6.35116         6.61918
     2012.46270         6.02844         6.82557
     2012.46543         1.44196         6.64607
     2012.46817         3.80794         6.75716
     2012.47365         8.63039         6.61361
     2012.47639         3.09874         6.60606
     2012.47912         3.29866         6.57554
     2012.48186         0.64828         6.57859
     2012.48460         3.35206         6.76240
     2012.48734         2.77194        17.59396
     2012.49281         4.44036        13.46233
     2012.49555        19.13007         6.56045
     2012.49829         4.66404         6.59164
     2012.50103         6.10719         6.70639
     2012.50376         9.29253         6.57938
     2012.50650         0.86106         6.70182
     2012.51198         4.83651         6.78875
     2012.51472         5.97634         6.56828
     2012.51745         4.61765         6.54850
     2012.52019         6.49393         6.58520
     2012.52293         6.61160         6.56255
     2012.52567        10.57716         6.56222
     2012.53114        11.63361         6.61964
     2012.53388        15.81626         7.09513
     2012.53662         8.13522         8.29078
     2012.53936         1.28352         7.37383
     2012.54209         5.27100         7.46733
     2012.54483         9.39771         6.56257
     2012.55031         6.73042         6.76173
     2012.55305        12.15277         6.55012
     2012.55578         9.94733         6.56342
     2012.55852         2.75650         6.56377
     2012.56126        11.35383         6.55318
     2012.56400        16.06829         6.57525
     2012.56947        12.46576         6.70971
     2012.57221         9.49554         6.59829
     2012.57495        12.16851         6.57010
     2012.57769        14.70071         6.57615
     2012.58042        10.44696         6.56206
     2012.58316         9.82538         6.55733
     2012.58864        11.66107         7.53315
     2012.59138         6.74260         6.59300
     2012.59411        12.89085         6.59930
     2012.59685        15.22852         7.13417
     2012.59959        12.58198         7.04931
     2012.60233        12.32088         6.77091
     2012.60780        13.33121         6.60184
     2012.61054        16.94184         6.56486
     2012.61328        11.52182         6.54884
     2012.61602        11.60346         6.54810
     2012.61875        13.01354         6.71276
     2012.62149        15.77502         6.61457
     2012.62697        15.58457         6.56020
     2012.62971         6.59500         6.58492
     2012.63244        10.72981         6.61122
     2012.63518        17.24222         6.62038
     2012.63792        19.69635         6.61123
     2012.64066        11.05866        10.05083
     2012.64339        11.63027         6.97757
     2012.64613         8.04719         6.58121
     2012.64887        10.70537         6.68385
     2012.65161        23.37206         6.99556
     2012.65435         6.79111         7.15632
     2012.65708        12.72800         9.84062
     2012.65982        16.09388        15.49977
     2012.66530        19.33516         6.63083
     2012.66804         8.26854         6.78303
     2012.67077        12.32301         6.62217
     2012.67351        12.02986         6.84073
     2012.67625        10.42337         6.81892
     2012.67899        13.51336         6.69277
     2012.68446        12.76634         6.83032
     2012.68720        12.41109         6.63548
     2012.68994        14.65174         7.23092
     2012.69268        23.62454        12.28099
     2012.69541         9.58765         6.91516
     2012.69815        11.67682         6.79352
     2012.70363         9.67839         6.76424
     2012.70637        12.22405         6.68281
     2012.70910        11.54151         6.76062
     2012.71184        17.22448         6.80133
     2012.71458        17.15964         6.68081
     2012.71732        17.70328         6.57779
     2012.72279        13.95271         6.76960
     2012.72553        12.75626         6.74391
     2012.72827        16.13498         6.74746
     2012.73101        12.10070         7.05272
     2012.73374        15.06984         7.33238
     2012.73648        12.96372         6.77581
     2012.74196        17.52076         6.87499
     2012.74470        20.19070         6.63596
     2012.74743        19.18887         9.95612
     2012.75017        15.63687        12.42320
     2012.75291        13.69993         7.07133
     2012.75565        10.42936         6.79027
     2012.76112         9.84181         6.75399
     2012.76386        13.11419         6.72305
     2012.76660        15.24427         6.89157
     2012.76934        14.22742         6.95811
     2012.77207        10.00699         6.82703
     2012.77481         9.02478         6.74773
     2012.78029         9.77996         7.05690
     2012.78303         8.54111         6.78367
     2012.78576         2.18485         6.80401
     2012.78850        17.64075         6.75587
     2012.79124         9.24612         6.76270
     2012.79398        13.94321         6.77071
     2012.79671        11.31376         6.76838
     2012.79945         8.29035         6.88348
     2012.80219        16.30798         6.78866
     2012.80493        12.25502         6.78171
     2012.80767        11.35578         6.96637
     2012.81040         4.45825         6.92105
     2012.81314        -1.16270         6.78207
     2012.81588         4.48157         6.78840
     2012.81862         4.63553         7.02721
     2012.82136        10.47047         6.76483
     2012.82409        11.09916         7.02594
     2012.82683         3.96071         6.87915
     2012.82957         8.10728         6.74838
     2012.83231        14.07575         7.13536
     2012.83504         7.10501         6.97058
     2012.83778         8.69810         6.77604
     2012.84052         6.94535         6.76864
     2012.84326        11.35505         8.92609
     2012.84600        12.49398         6.97298
     2012.84873         7.06996         6.78938
     2012.85147        12.23005         6.79172
     2012.85421         6.63327         6.77799
     2012.85695         8.23234         6.77757
     2012.85969        15.05791         6.78361
     2012.86242         7.25110         6.97700
     2012.86516         9.30969         6.93543
     2012.86790        11.70882         7.12366
     2012.87064         7.22753         7.09997
     2012.87337        10.32012         6.92278
     2012.87611         7.13219         6.90266
     2012.87885         7.05901         6.83275
     2012.88159        10.31433         6.77019
     2012.88433         8.53735         6.79554
     2012.88706         8.49604         7.04290
     2012.88980        14.67064         6.90165
     2012.89254         5.93799         6.70423
     2012.89528         8.47930         6.67803
     2012.89802        13.82737         7.16197
     2012.90075        10.07549         6.71618
     2012.90349         8.02121         6.84044
     2012.90623         7.94502         7.20982
     2012.90897        14.75577         6.86206
     2012.91170         8.67951         6.69844
     2012.91444         6.19566         6.75765
     2012.91718         3.02237         6.84484
     2012.91992        10.79723         6.79441
     2012.92266         5.09096         6.66548
     2012.92539         1.05556         6.68666
     2012.92813        -0.86123         6.71125
     2012.93087         4.41501         6.94582
     2012.93361         6.03851         7.11852
     2012.93634         6.14419         6.75570
     2012.93908         5.38041         7.17155
     2012.94182        10.30396         6.62994
     2012.94456         8.39782         6.77116
     2012.94730        11.98174         7.13324
     2012.95003         5.93013         6.90932
     2012.95277        11.27352         6.73339
     2012.95551         7.06442         6.71070
     2012.95825         9.53095         6.84003
     2012.96099        11.17522         6.96308
     2012.96372        18.49330         6.89148
     2012.96646         9.23396         6.86703
     2012.96920         7.96343         6.88993
     2012.97194         9.01172         6.91976
     2012.97467         7.70685         6.77920
     2012.97741        14.18831         6.65014
     2012.98015         7.64293         6.80805
     2012.98289         5.17220         6.84286
     2012.98563        10.92070         6.91938
     2012.98836        13.60033         6.96652
     2012.99110        13.09528         6.92169
     2012.99384         8.52620         6.64950
     2012.99658         5.81244         6.92888
     2012.99932         7.92307         7.15704
     2013.00205         9.53863         6.69959
     2013.00479         8.71269         7.15279
     2013.00753         2.40366         6.82785
     2013.01027        11.23052         6.76508
     2013.01300         3.07881         6.78038
     2013.01574         5.95961         6.93246
     2013.01848         5.77796         6.73316
     2013.02122         1.34815         6.80787
     2013.02396         9.55479         6.71454
     2013.02669         4.24821         6.72897
     2013.02943         5.76089         6.80692
     2013.03217         7.88106         6.82674
     2013.03491         1.53274         6.86320
     2013.03765         4.64232         6.93046
     2013.04038         3.32228         7.05083
     2013.04312         2.67594         6.93469
     2013.04586         2.56566         6.99366
     2013.04860         3.49342         7.05167
     2013.05133         4.35644         6.74525
     2013.05407         5.47311         6.91579
     2013.05681         7.02773         6.70072
     2013.05955         4.38801         6.74446
     2013.06229         0.09897         6.99384
     2013.06502         9.41513         6.96467
     2013.06776         6.15161         7.01261
     2013.07050         1.55096         6.80385
     2013.07324         0.11991         6.65508
     2013.07598         9.39820         6.72913
     2013.07871         8.28998         6.72878
     2013.08145        14.30029         6.82291
     2013.08419        16.57134         6.65102
     2013.08693         7.93358         6.65427
     2013.08966        -0.85701         6.67606
     2013.09240         7.43610         6.74791
     2013.09514        12.75184         6.73116
     2013.09788        19.08817         6.95546
     2013.10062         9.50790         7.27136
     2013.10335        -0.05760         6.73798
     2013.10609         7.20830         6.75980
     2013.10883         9.60206         6.75515
     2013.11157         1.18030         7.00949
     2013.11431        10.85164         6.73013
     2013.11704         7.67240         6.75972
     2013.11978         7.27989         6.86367
     2013.12252         6.64685         6.71360
     2013.12526         5.46520         6.70861
     2013.12799        11.75643         6.70185
     2013.13073         8.46049         6.71762
     2013.13347         7.69461         6.80615
     2013.13621        12.96761         6.81625
     2013.13895         4.32010         6.71736
     2013.14168         7.30782         6.96342
     2013.14442         2.70208         6.92197
     2013.14716        11.85777         6.92475
     2013.14990         5.19320         6.70007
     2013.15264         3.45922         6.72328
     2013.15537         6.71141         6.68482
     2013.15811         3.03863         6.75368
     2013.16085         6.05611         6.67349
     2013.16359         5.23311         6.85955
     2013.16632         2.82444         6.71132
     2013.16906         9.72408         6.86221
     2013.17180         4.29159         6.65917
     2013.17454         0.03781         6.86342
     2013.17728         7.15566         7.13769
     2013.18001         3.36405         8.12182
     2013.18275         4.44201         6.74082
     2013.18549         4.29435         6.68361
     2013.18823         8.72379         6.64630
     2013.19097         8.20286         6.67744
     2013.19370         3.42209         6.67314
     2013.19644         7.14083         6.90185
     2013.19918        11.49751         6.70345
     2013.20192         3.18752         6.66386
     2013.20465         9.89745         6.64078
     2013.20739         6.12513         6.80395
     2013.21013         2.34041         6.80923
     2013.21287        -0.42178         7.15112
     2013.21561         6.06187         6.71864
     2013.21834        10.66551         6.64847
     2013.22108         5.44325         6.60066
     2013.22382         4.50231         6.76117
     2013.22656         2.95719         6.63112
     2013.22930        -1.71862         6.60942
     2013.23203         7.71664         6.64651
     2013.23477         6.57384         6.69372
     2013.23751        10.91015         6.75322
     2013.24025         5.09724         6.80495
     2013.24298         3.52791         6.81567
     2013.24572         7.00825         6.76581
     2013.24846         5.09535         6.79930
     2013.25120        12.67642         6.76185
     2013.25394         6.30604         6.88563
     2013.25667         8.36991         6.93466
     2013.25941         7.76493         6.78135
     2013.26215         2.21734         6.80097
     2013.26489         8.95104         6.77703
     2013.26762         4.82344         6.76080
     2013.27036        -2.69942         6.74416
     2013.27310         5.27196         6.89511
     2013.27584         1.50310         6.86651
     2013.27858         1.67985         6.92220
     2013.28131         6.69547         7.00368
     2013.28405         6.93862         6.92265
     2013.28679         4.97107         6.74402
     2013.28953        -1.69427         6.74056
     2013.29227        -5.45777         6.79879
     2013.29500         7.63540         6.79013
     2013.29774         7.22421         6.78996
     2013.30048         5.44673         6.77825
     2013.30322         1.70405         6.76261
     2013.30595        -5.73749         6.80122
     2013.30869        -0.99446         6.75813
     2013.31143         2.64817         6.90687
     2013.31417         8.34562         6.72731
     2013.31691         6.13479         6.75488
     2013.31964         0.07798         6.79519
     2013.32238         3.26397         6.77244
     2013.32512         5.68976         6.98456
     2013.32786         1.86929         6.76956
     2013.33060        -2.30123         6.75331
     2013.33333         1.44562         6.76950
     2013.33607        -0.47174         6.85244
     2013.33881         3.13321         6.77019
     2013.34155         5.01699         6.81402
     2013.34428         9.32234         6.90376
     2013.34702        10.56030         6.78101
     2013.34976         9.36129         6.72905
     2013.35250         3.46590         6.77686
     2013.35524         9.32778         6.88932
     2013.35797         7.32726         6.80608
     2013.36071         1.75073         6.86705
     2013.36345         1.42972         6.87694
     2013.36619         4.51252         6.74375
     2013.36893         9.60473         6.75381
     2013.37166         8.65282         6.75894
     2013.37440         4.88711         6.94128
     2013.37714         3.87945         6.73095
     2013.37988         5.27194         6.70179
     2013.38261         4.42302         6.72995
     2013.38535         0.14146         7.02164
     2013.38809         7.51206         6.76969
     2013.39083         4.49102         6.88552
     2013.39357         7.90874         6.71188
     2013.39630         7.11768         7.21784
     2013.39904         3.52399         6.86022
     2013.40178        12.60905         6.87889
     2013.40452         3.84418         7.00202
     2013.40726         8.12147         6.76676
     2013.40999         6.61367         6.74968
     2013.41273        12.14362         6.77345
     2013.41547         8.40687         7.08363
     2013.41821         9.08541         6.76787
     2013.42094        11.61540         6.83535
     2013.42368         2.54845         6.79051
     2013.42642         4.26939         6.96786
     2013.42916        11.84538         7.03722
     2013.43190         9.42821         7.22459
     2013.43463         9.38595         7.40779
     2013.43737         4.58263         8.35238
     2013.44011         6.98696         7.91307
     2013.44285         9.16177         6.74350
     2013.44559        12.11720         6.87082
     2013.44832         5.42221         6.73316
     2013.45106         5.70269         6.80270
     2013.45380         3.44662         6.78442
     2013.45654         8.67131         6.82845
     2013.45927        11.47982         6.90928
     2013.46201        11.45461         7.08303
     2013.46475        10.29280         6.81047
     2013.46749        10.00052         6.90473
     2013.47023         7.29803         6.93108
     2013.47296         8.71949         6.72718
     2013.47570        11.64435         6.80472
     2013.47844         8.44664         6.68377
     2013.48118         5.39113         6.88518
     2013.48392        -2.81047         6.75442
     2013.48665         1.79813         6.69132
     2013.48939        10.89306         6.70702
     2013.49213         9.07238         6.76011
     2013.49487         3.93776         6.87000
     2013.49760         3.25299         6.77054
     2013.50034        12.00446         6.67498
     2013.50308        11.12601         6.88004
     2013.50582        17.08698         6.67225
     2013.50856        12.52369         6.65242
     2013.51129        10.36196         6.74039
     2013.51403         5.21486         6.64970
     2013.51677        10.84038         6.68235
     2013.51951         8.81639         6.66501
     2013.52225        18.62498         7.13290
     2013.52498         2.68459         7.04938
     2013.52772        13.79365         6.74539
     2013.53046         9.42690         6.64534
     2013.53320         8.73997         6.77071
     2013.53593        10.97248         6.68484
     2013.53867        13.13228         6.69408
     2013.54141        13.78614         7.10203
     2013.54415         9.88030         6.78914
     2013.54689         8.47109         6.76363
     2013.54962        17.00972         6.70148
     2013.55236        10.64116         6.77993
     2013.55510        16.30501         6.62998
     2013.55784        11.19848         7.99310
     2013.56057         8.74065         6.83008
     2013.56331         8.59208         6.86965
     2013.56605         9.26353         6.78570
     2013.56879        20.28534         6.68808
     2013.57153        15.49825         6.75485
     2013.57426        18.59389         7.56912
     2013.57700        14.69298         6.74984
     2013.57974        17.96236         6.72305
     2013.58248        19.40590         6.75322
     2013.58522        14.22280         6.72060
     2013.58795        11.97355         6.75705
     2013.59069        14.58484         6.69977
     2013.59343         8.91051         6.93500
     2013.59617        15.58891         6.77883
     2013.59890        13.05590         6.79516
     2013.60164        16.35791         6.79079
     2013.60438        18.73306         6.67393
     2013.60712        12.70609         6.73037
     2013.60986        15.92634         6.82033
     2013.61259        19.46421         6.79028
     2013.61533        12.54764         6.89898
     2013.61807         9.96001         6.90182
     2013.62081        10.33728         6.92510
     2013.62355        11.35205        11.42724
     2013.63176         6.37040        14.64812
     2013.63450        15.06393         6.88717
     2013.63723        16.42563         6.72051
     2013.63997        13.14836         7.99212
     2013.64271        15.32903         6.94098
     2013.64545        18.63790         6.87895
     2013.64819        17.12274         6.73459
     2013.65092        16.40009         6.71085
     2013.65366        16.35273         6.96257
     2013.65640        17.56043         6.72143
     2013.65914        21.10434         7.12295
     2013.66188        19.23930         6.71527
     2013.66461        13.02501         6.69648
     2013.66735        13.87404         6.93983
     2013.67009        13.15522         6.94037
     2013.67283        16.22013         6.88979
     2013.67556        15.27711         6.81069
     2013.67830        15.78308         6.87059
     2013.68104        19.84234         6.69893
     2013.68378        20.70420         6.70515
     2013.68652        13.58616         6.68372
     2013.68925        20.15420         6.77144
     2013.69199        17.89733         6.96722
     2013.69473        18.10555         6.84692
     2013.69747        17.84539         6.74292
     2013.70021        18.15545         6.78358
     2013.70294        15.54053         6.69196
     2013.70568        15.83893         6.82095
     2013.70842        17.96637         6.78730
     2013.71116        11.04254         6.82081
     2013.71389        15.54542         6.72023
     2013.71663        18.16755         6.70084
     2013.71937        20.57479         7.10047
     2013.72211        22.92472         6.72663
     2013.72485        23.44174         7.41022
     2013.72758        14.59089         6.86655
     2013.73032        19.25547         6.66590
     2013.73306        15.73474         6.63014
     2013.73580         6.62652         6.74045
     2013.73854         9.37026         6.73562
     2013.74127        12.99588         6.67595
     2013.74401        18.44140         6.80861
     2013.74675        17.22287         6.69137
     2013.74949         9.59132         6.71837
     2013.75222         5.83550         6.72558
     2013.75496         8.72959         6.76228
     2013.75770         3.84550         6.69910
     2013.76044         1.41742         6.70357
     2013.76318         6.33392         6.69387
     2013.76591         6.85947         6.97250
     2013.76865         7.14824         6.88204
     2013.77139         4.17588         6.66155
     2013.77413         7.42664         6.69219
     2013.77687         4.11240         6.84034
     2013.77960        12.43688         7.01709
     2013.78234         5.01992         7.01109
     2013.78508         1.87898         6.72211
     2013.78782        -2.25783         6.70856
     2013.79055         6.54814         6.66054
     2013.79329        11.38277         6.72048
     2013.79603        10.13316         6.81187
     2013.79877         7.94087         6.75008
     2013.80151        13.48841         6.80528
     2013.80424        11.67509         6.75929
     2013.80698         6.10489         6.71397
     2013.80972        14.30193         6.74599
     2013.81246         8.95666         6.90864
     2013.81520        10.87239         6.74071
     2013.81793         6.05721         6.66402
     2013.82067         8.88156         7.09492
     2013.82341         8.33239         6.71789
     2013.82615         4.07588         6.91619
     2013.82888         0.99051         7.01537
     2013.83162        13.25316         6.63372
     2013.83436        11.78373         6.87032
     2013.83710        18.26607         7.11606
     2013.83984        16.21420         6.82753
     2013.84257        10.18106         6.95484
     2013.84531        10.18879         6.86895
     2013.84805        11.82584         6.69219
     2013.85079        12.16564         6.85706
     2013.85352        19.36668         6.73239
     2013.85626         6.81355         6.79958
     2013.85900        11.16115         6.74334
     2013.86174         5.33966         6.68552
     2013.86448         7.98001         6.71392
     2013.86721         4.50375         6.83875
     2013.86995        12.85191         6.79670
     2013.87269        13.71962         6.75635
     2013.87543        19.37731         6.74202
     2013.87817        13.06778         6.80256
     2013.88090        14.48144         6.86277
     2013.88364        19.58507         7.05065
     2013.88638         5.58382         6.68721
     2013.88912         1.47526         6.73162
     2013.89185         1.51500         6.70961
     2013.89459         2.98833         6.71293
     2013.89733         4.78964         6.75246
     2013.90007         0.65795         7.01823
     2013.90281         5.12856         6.80055
     2013.90554         7.54073         6.76454
     2013.90828         4.34542         6.83147
     2013.91102         4.39910         6.71116
     2013.91376         9.79992         6.72844
     2013.91650         8.34547         6.85145
     2013.91923         7.98500         6.83787
     2013.92197         2.66068         6.97527
     2013.92471         3.31371         6.72200
     2013.92745         5.32208         6.84185
     2013.93018         4.35559         6.83573
     2013.93292         4.62335         6.76627
     2013.93566        -0.61115         6.81561
     2013.93840         8.68505         6.66930
     2013.94114        15.21268         6.68605
     2013.94387         5.49768         6.90263
     2013.94661         4.65015         6.98080
     2013.94935         8.29735         6.71728
     2013.95209         3.54154         6.80864
     2013.95483         5.58132         6.78620
     2013.95756         8.10224         7.00244
     2013.96030         0.81636         6.85061
     2013.96304        10.22635         6.91006
     2013.96578         7.35850         6.86541
     2013.96851         0.50973         6.69411
     2013.97125        10.23085         6.89038
     2013.97399         8.90771         6.96947
     2013.97673         9.71177         6.91613
     2013.97947         2.66342         6.78962
     2013.98220         4.63201         7.08820
     2013.98494         6.62150         6.93196
     2013.98768        -1.02531         7.09507
     2013.99042         6.96282         6.75095
     2013.99316        -1.79239         6.85617
     2013.99589         1.05241         6.86243
     2013.99863        -5.32951         6.91862
     2014.00137        -1.59766         7.16854
     2014.00411        -6.35050         6.80000
     2014.00684        -4.51848         7.42468
     2014.00958         0.61660         6.81359
     2014.01232        -2.63040         6.84244
     2014.01506         8.48890         6.86986
     2014.01780         4.50965         7.13295
     2014.02053         8.52454         6.87488
     2014.02327         5.95411         6.83409
     2014.02601        10.74068         6.96808
     2014.02875        13.67784         6.79428
     2014.03149         9.59545         6.86914
     2014.03422         2.19215         6.83829
     2014.03696         1.08414         6.84011
     2014.03970         2.58918         6.78663
     2014.04244         3.93601         6.91420
     2014.04517         9.74414         7.01956
     2014.04791         9.28048         6.75352
     2014.05065         9.56546         6.75258
     2014.05339         5.22989         6.64283
     2014.05613         4.55862         6.62121
     2014.05886         4.41689         6.81402
     2014.06160         4.79047         7.39300
     2014.06434        13.49569         7.17052
     2014.06708        12.84748         6.93876
     2014.06982         8.26791         6.74269
     2014.07255         6.85743         6.72035
     2014.07529         8.84095         6.83788
     2014.07803        11.03324         6.81716
     2014.08077        13.63982         6.72013
     2014.08350        13.44933         6.69864
     2014.08624        11.36025         6.83812
     2014.08898         9.54344         6.90880
     2014.09172         9.60755         7.05805
     2014.09446        10.19275         6.80853
     2014.09719         9.10765         6.88070
     2014.09993        10.74123         6.69887
     2014.10267         3.38149         6.91465
     2014.10541         8.97649         6.72963
     2014.10815         2.67787         6.74859
     2014.11088         5.62494         6.96842
     2014.11362         2.17719         6.77487
     2014.11636        17.03871         6.57418
     2014.11910         3.37386         6.85974
     2014.12183        13.52015         6.82919
     2014.12457        12.09689         6.93074
     2014.12731        13.34967         6.73267
     2014.13005        15.30422         6.79729
     2014.13279        15.62934         6.90168
     2014.13552        10.56190         6.76650
     2014.13826         4.41663         6.75661
     2014.14100        14.77012         6.89439
     2014.14374         7.29778         6.73470
     2014.14648         5.24962         7.57280
     2014.14921        12.12633         6.79795
     2014.15195        11.83837         6.79646
     2014.15469        11.84746         6.83690
     2014.15743        14.94642         6.91227
     2014.16016        12.09972         7.11364
     2014.16290         8.13558         6.90737
     2014.16564        14.89162         6.96773
     2014.16838        10.78070         7.16265
     2014.17112         4.27392         7.17628
     2014.17385         8.17702         6.93564
     2014.17659        16.47466         6.81553
     2014.17933        16.67899         7.31036
     2014.18207        11.82852         6.92060
     2014.18480         8.76893         7.89868
     2014.18754        13.94585         6.99744
     2014.19028         6.83787         6.78934
     2014.19576         5.26555         6.88310
     2014.19849         5.48987         7.14871
     2014.20123         0.07712         6.81786
     2014.20397         4.44454         7.09512
     2014.20671        15.16750         6.84665
     2014.20945        12.15216         6.81112
     2014.21218         7.42748         6.93512
     2014.21492        11.11112         7.03572
     2014.21766        11.22602         6.76620
     2014.22040         6.12753         6.79317
     2014.22313        10.10554         6.79506
     2014.22587         4.74925         7.41979
     2014.22861        -1.15835         7.70178
     2014.23135         8.81104         6.75487
     2014.23409        -4.30502         7.76649
     2014.23682         4.46903         6.73194
     2014.23956        -0.14353         6.93187
     2014.24230         8.29926         6.75359
     2014.24504         3.43941         6.80660
     2014.24778         6.40442         7.08882
     2014.25051         7.07186         6.79675
     2014.25325         0.60426         6.78948
     2014.25599         1.99408         6.96758
     2014.25873         3.70159         6.76367
     2014.26146        11.75165         6.95210
     2014.26420         6.62018         6.79763
     2014.26694         5.55724         6.79804
     2014.26968         5.20653         7.09733
     2014.27515         4.56753         7.10360
     2014.27789         4.61647         6.93057
     2014.28063         9.15940         6.83077
     2014.28337         7.54099         6.79303
     2014.28611         7.34864         6.97884
     2014.28884         0.41290         7.79603
     2014.29158        10.38935         6.99442
     2014.29432         6.06430         6.76141
     2014.29706        13.08950         6.79193
     2014.29979         5.74525         6.78081
     2014.30253        14.67766         6.76937
     2014.30527         4.18998         6.83521
     2014.30801         9.59929         6.79155
     2014.31075         3.72494         6.96678
     2014.31348         7.96396         6.78761
     2014.31622         0.15865         6.75426
     2014.31896         4.91737         6.72758
     2014.32170         1.90995         6.91973
     2014.32444         0.96856         6.90849
     2014.32717         9.93342         6.91432
     2014.32991         6.62895         6.86424
     2014.33265         1.22532         6.93440
     2014.33539         7.87335         6.73524
     2014.33812         2.73587         6.95574
     2014.34086        -3.91859         6.78065
     2014.34360        -2.73664         6.81695
     2014.34634         2.77274         6.72007
     2014.34908         8.89704         7.29896
     2014.35181         8.31705         6.92457
     2014.35455         3.70824         6.80251
     2014.35729        -0.69044         6.76014
     2014.36003        -0.93954         6.81459
     2014.36277         2.23688         6.77329
     2014.36550        -1.48659         6.83330
     2014.36824         5.67568         6.94988
     2014.37098        15.38792         7.64914
     2014.37372        10.08869         6.96592
     2014.37645         4.30431         6.76407
     2014.37919         6.26096         6.81095
     2014.38193         1.04509         6.80467
     2014.38467         6.62989         6.85344
     2014.38741         0.03673         6.86812
     2014.39014         6.37989         6.87204
     2014.39288         7.08980         6.84760
     2014.39562        10.65707         6.87323
     2014.39836         4.69744         6.99182
     2014.40110         5.49782         6.94682
     2014.40383         7.50676         6.95182
     2014.40657         1.95346         6.86867
     2014.40931         5.50166         6.88776
     2014.41205         8.62059         6.93476
     2014.41478        10.41216         6.84351
     2014.41752         8.07129         6.74470
     2014.42026         6.55278         6.81167
     2014.42300         6.44320         6.79173
     2014.42574         9.91291         6.93984
     2014.43121         2.36663         6.84491
     2014.43395         6.87646         6.79839
     2014.43669         6.99542         6.78304
     2014.43943         1.13730         6.78740
     2014.44216        -0.67934         6.96968
     2014.44490         9.58308         6.93208
     2014.44764         3.02218         7.08718
     2014.45038         3.42155         6.77499
     2014.45311         7.08308         6.78992
     2014.45585         4.11961         6.76812
     2014.45859         7.36952         6.76036
     2014.46133         8.83817         6.75899
     2014.46407         2.31596         6.91949
     2014.46680         3.43423         7.41286
     2014.46954         2.51461         6.80558
     2014.47228         3.60135         6.77849
     2014.47502         0.79053         6.92706
     2014.47775        10.88752         6.78232
     2014.48049        11.66266         6.74966
     2014.48323        15.80611         6.83433
     2014.48597         8.62014         6.82388
     2014.48871        -6.27536         6.80501
     2014.49144         9.78244         6.72375
     2014.49418        10.80220         6.69159
     2014.49692        14.65583         6.68381
     2014.49966         8.52799         6.83341
     2014.50240         7.50510         6.70859
     2014.50513         8.17186         6.81691
     2014.50787         8.64877         6.79484
     2014.51061         9.01675         6.66186
     2014.51335        11.74008         6.68976
     2014.51608        14.18753         6.73404
     2014.51882        14.46435         6.68610
     2014.52156        12.09335         6.85824
     2014.52430        12.96734         6.66089
     2014.52704        15.93643         6.68797
     2014.52977        12.61337         7.09245
     2014.53251        18.34239         6.66651
     2014.53525        20.04074         6.67870
     2014.53799        18.38004         6.68341
     2014.54073        14.59842         6.81762
     2014.54346        14.80009         6.81096
     2014.54620        19.10266         6.92472
     2014.54894        18.17842         6.81720
     2014.55168        16.86533         6.71618
     2014.55441        11.83824         6.87203
     2014.55715        13.25195         6.64004
     2014.55989        17.37871         6.68475
     2014.56263        15.64874         6.64164
     2014.56537         6.00837         6.68893
     2014.56810         8.63339         6.87423
     2014.57084        14.66435         6.72810
     2014.57358        16.25689         6.67193
     2014.57632        13.45302         6.71238
     2014.57906        14.95545         6.65999
     2014.58179        22.07650         6.78422
     2014.58453        13.53935         7.02737
     2014.58727        13.07895         7.09541
     2014.59001        17.47544         6.95353
     2014.59274        14.59366         6.87027
     2014.59548        18.21343         6.93759
     2014.59822        16.11865         6.92603
     2014.60096        12.26274         6.91169
     2014.60370        12.84460         6.78853
     2014.60643        17.11771         6.81453
     2014.60917        11.06490         6.83286
     2014.61191        22.34244         7.89476
     2014.61465        20.71947        14.85958
     2014.61739        17.51044         7.02752
     2014.62012        15.54278         6.92277
     2014.62286        14.89909         7.03968
     2014.62560        19.27335         6.88492
     2014.62834        14.41271         6.79215
     2014.63107        16.52240         7.20143
     2014.63381        14.50459         7.11290
     2014.63655        12.83952         7.99032
     2014.63929         8.77504         7.06714
     2014.64203        11.67141         6.71590
     2014.64476        12.08158         6.86942
     2014.64750        13.66519         6.85657
     2014.65024        15.30560         6.75979
     2014.65298        23.07632         7.74455
     2014.65845         2.81460        12.82505
     2014.66119        18.92081         7.72144
     2014.66393        24.24559         7.48904
     2014.66667        14.44445         7.52287
     2014.66940        10.80360         7.39874
     2014.67214        15.07992         7.25283
     2014.67488         9.16180         6.89531
     2014.67762         8.79630         6.95429
     2014.68036        15.07769         6.73000
     2014.68309        13.94908         6.71439
     2014.68583        11.95209         6.71596
     2014.68857        12.42064         6.87052
     2014.69131        15.26290         6.70480
     2014.69405         7.01094         6.69571
     2014.69678         8.05026         6.72623
     2014.69952        17.10920         6.67688
     2014.70226         8.07837         6.66341
     2014.70500         9.45989         6.67470
     2014.70773        13.12603         6.68050
     2014.71047        14.83223         6.81326
     2014.71321        11.40247         6.63400
     2014.71595        15.00054         6.71226
     2014.71869        11.42500         6.76230
     2014.72142        13.70006         6.64252
     2014.72416        19.83830         6.82885
     2014.72690        14.76664         6.78103
     2014.72964         9.36446         6.64226
     2014.73238        12.98020         6.75031
     2014.73511         9.69303         6.64772
     2014.73785        10.52530         6.67933
     2014.74059         3.29126         6.70056
     2014.74333         4.82382         6.97675
     2014.74606        14.43944         6.66299
     2014.74880         9.85086         6.67746
     2014.75154         6.76080         6.84264
     2014.75428         6.64626         6.96281
     2014.75702         7.51885         6.69722
     2014.75975        11.91715         6.66340
     2014.76249        10.53759         6.68742
     2014.76523        11.81385         6.66857
     2014.76797        18.25616         6.69071
     2014.77070         8.18020         6.69211
     2014.77344        12.16985         6.77518
     2014.77618        17.83220         6.65778
     2014.77892        12.67676         6.95823
     2014.78166        18.58885         7.38512
     2014.78439        21.01449         8.10403
     2014.78713        18.27859         6.73782
     2014.78987         9.61311         6.76416
     2014.79261        12.66008         6.66348
     2014.79535         8.75877         6.79044
     2014.79808        12.85416         7.38710
     2014.80082         8.97540         6.73651
     2014.80356         4.21818         6.87820
     2014.80630         8.80567         6.79428
     2014.80903         6.40666         6.87542
     2014.81177        15.11984         6.78656
     2014.81451        19.79504         7.35251
     2014.81725        13.61260         6.60273
     2014.81999         9.42637         6.83210
     2014.82272         2.39225         6.91740
     2014.82546         8.31059        12.31543
     2014.82820        14.92442        11.30973
     2014.83094        15.74019         6.85016
     2014.83368         2.04672         6.70094
     2014.83641         1.47977         6.91249
     2014.83915        14.60245         6.77842
     2014.84189        12.82814         7.09890
     2014.84463        12.56986         6.75626
     2014.84736         0.48483         7.01700
     2014.85010        14.56064         6.71570
     2014.85284         4.80273         6.75474
     2014.85558        15.26788         6.73556
     2014.85832         8.02299         6.75645
     2014.86105        -5.08530         7.04121
     2014.86379         6.35759         6.72115
     2014.86653        10.95673         6.98530
     2014.86927         8.95457         6.88410
     2014.87201         2.54660         6.75819
     2014.87474         4.41129         6.77048
     2014.87748         9.34340         6.85337
     2014.88022         8.97946         7.65874
     2014.88296        19.47372         7.23886
     2014.88569         5.76868         6.92412
     2014.88843        10.82931         7.35935
     2014.89117        13.65434         7.17211
     2014.89391         7.92265         7.06340
     2014.89665         3.46003         7.09622
     2014.89938         9.45247         7.12774
     2014.90212         1.13240         7.05098
     2014.90486        10.41346         6.95056
     2014.90760        12.37689         6.74517
     2014.91034        14.41355         6.91691
     2014.91307         6.93505         6.89438
     2014.91581         7.75910         6.85871
     2014.91855         4.93833         7.06362
     2014.92129         5.84277         6.87796
     2014.92402         7.07465         6.87833
     2014.92676        -1.05440         6.77276
     2014.92950         2.02484         6.76316
     2014.93224         1.28422         6.90435
     2014.93498         1.06732         6.87866
     2014.93771        -0.78216         7.44242
     2014.94045         3.05644         6.86806
     2014.94319        13.59317         6.91072
     2014.94593         6.24098         6.73026
     2014.94867        13.89870         6.83622
     2014.95140         5.11021         6.69995
     2014.95414        10.00434         6.61236
     2014.95688         9.57901         6.75175
     2014.95962         6.29901         6.69201
     2014.96235         7.98577         6.61965
     2014.96509         5.68812         6.75192
     2014.96783         4.45323         6.64879
     2014.97057         4.76142         6.63746
     2014.97331        -5.07843         6.85196
     2014.97604        -4.26283         6.62370
     2014.97878         4.22408         6.66137
     2014.98152         6.53253         6.95930
     2014.98426         5.71854         6.66001
     2014.98700        10.28254         6.62639
     2014.98973        13.20573         6.57674
     2014.99247         0.82051         6.85672
     2014.99521        -7.85145         6.64624
     2014.99795         8.80347         6.66791
     2015.00068         7.76399         6.65009
     2015.00342         5.60965         6.60358
     2015.00616         2.41286         6.58440
     2015.00890         1.19688         6.70407
     2015.01164         9.77813         6.75073
     2015.01437        -0.21712         6.74199
     2015.01711        -3.43337         6.72790
     2015.01985         1.81657         6.70899
     2015.02259         3.21259         6.88536
     2015.02533         9.91833         6.78150
     2015.02806        12.25241         6.90088
     2015.03080         7.06397         7.02354
     2015.03354         6.23210         6.72739
     2015.03628         3.89934         6.74208
     2015.03901         3.69522         6.75954
     2015.04175        13.95379         6.77760
     2015.04449         6.02679         6.79719
     2015.04723        19.03961         6.97556
     2015.04997         5.36514         6.97198
     2015.05270         1.76678         6.77900
     2015.05544         0.22936         6.71782
     2015.05818         7.79881         6.86546
     2015.06092        11.45897         6.63538
     2015.06366        17.10014         6.78477
     2015.06639         9.70193         6.82798
     2015.06913        11.76689         6.75871
     2015.07187        16.90086         6.71028
     2015.07461        11.20603         6.66009
     2015.07734         2.31409         6.67314
     2015.08008         1.45150         6.67264
     2015.08282         6.45833         6.72495
     2015.08556         6.15664         6.69656
     2015.08830        13.89822         7.11955
     2015.09103        17.26855         6.62780
     2015.09377        18.45440         6.79588
     2015.09651        12.19448         6.88305
     2015.09925        20.14904         6.81878
     2015.10198        15.30431         6.70734
     2015.10472         7.20786         6.62963
     2015.10746        11.05604         6.65033
     2015.11020         4.58699         7.14608
     2015.11294         2.37699         6.76751
     2015.11567         8.12757         6.78291
     2015.11841         7.21035         6.66136
     2015.12115         9.25394         6.92977
     2015.12389         4.07733         6.66817
     2015.12663         5.08389         6.67169
     2015.12936         6.66856         6.68751
     2015.13210         5.04573         7.21808
     2015.13484        10.08779         6.74660
     2015.13758         9.75393         6.75774
     2015.14031         6.57084         6.76838
     2015.14305         7.28978         6.69204
     2015.14579         8.31986         6.67083
     2015.14853         5.51714         6.69791
     2015.15127         9.36150         6.66859
     2015.15400        12.42388         6.98297
     2015.15674        16.15840         6.72429
     2015.15948         2.05437        19.96466
     2015.16222        10.38658         6.71236
     2015.16496        13.99776         7.75845
     2015.17043         3.92401         6.80296
     2015.17317         7.41192         7.18192
     2015.17591         4.39536        13.73706
     2015.17864        14.38002         7.15094
     2015.18138         8.88390         6.99851
     2015.18412        15.33169         6.71182
     2015.18686        11.71806         6.69263
     2015.18960         6.87245         6.68891
     2015.19233         2.73201         7.09064
     2015.19507         5.59226         6.81503
     2015.19781        12.63077         6.82445
     2015.20055        19.79841         6.66162
     2015.20329         9.06423         6.68700
     2015.20602         4.26783         6.77910
     2015.20876         9.00562         7.03015
     2015.21150         0.43459         6.83101
     2015.21424        10.04246         7.02481
     2015.21697         9.75728         6.67526
     2015.21971         3.32553         6.65037
     2015.22245        11.14647         6.76115
     2015.22519         9.46615         6.64128
     2015.22793         8.17350         6.62342
     2015.23066         8.02598         6.66587
     2015.23340         8.92699         6.79881
     2015.23614        13.13152         6.80888
     2015.23888        10.40853         7.00100
     2015.24162        15.12034         7.04231
     2015.24435        12.42569         7.13670
     2015.24709         6.28117         6.83340
     2015.24983         8.60683         6.61577
     2015.25257         9.03324         6.65819
     2015.25530         6.47031         6.68850
     2015.25804         8.79752         6.64622
     2015.26078        12.55531         6.65574
     2015.26352        10.74910         6.66946
     2015.26626         6.78901         6.64520
     2015.26899         8.39404         6.68536
     2015.27173         6.00546         6.76597
     2015.27447        12.21141         6.78199
     2015.27721         9.61262         6.67690
     2015.27995         7.67280         6.67483
     2015.28268         9.72005         6.84373
     2015.28542         4.44041         6.79915
     2015.28816        -1.85734         6.81380
     2015.29090         6.42785         6.63503
     2015.29363         1.73289         6.80245
     2015.29637         2.51270         6.69064
     2015.29911         3.94231         6.63482
     2015.30185         3.19266         6.73605
     2015.30459         7.31672         6.78928
     2015.30732         4.47660         6.67037
     2015.31006         2.63369         6.68240
     2015.31280         6.64981         6.68191
     2015.31554        -0.39694         6.62862
     2015.31828         5.14951         6.81977
     2015.32101         0.03094         6.67348
     2015.32375         5.25316         6.76581
     2015.32649         6.01954         6.83992
     2015.32923         5.09469         6.79182
     2015.33196         6.81269         6.64014
     2015.33470         3.55361         6.54241
     2015.33744         5.01763         6.70102
     2015.34018        10.09457         6.52535
     2015.34292         3.90945         6.52473
     2015.34565        -2.16230         6.50246
     2015.34839        -6.13864         6.52502
     2015.35113        -0.92411         6.50744
     2015.35387         9.53574         6.50656
     2015.35661        -1.91815         6.50617
     2015.35934         4.13147         6.58541
     2015.36208         0.32226         6.62713
     2015.36482         2.50297         6.49043
     2015.36756         8.18770         6.49834
     2015.37029         4.80307         6.48802
     2015.37303         1.06739         6.50680
     2015.37577         1.97903         6.50592
     2015.37851         1.40985         6.76274
     2015.38125         5.23831         6.52071
     2015.38398         9.17356         6.49799
     2015.38672         3.97675         6.63671
     2015.38946         5.73785         6.51519
     2015.39220         6.45175         6.61795
     2015.39493         4.35714         6.46803
     2015.39767         9.23092         6.44478
     2015.40041         5.88769         6.53686
     2015.40315         2.69912         6.72843
     2015.40589         2.91576         6.57541
     2015.40862         5.94198         6.53013
     2015.41136         6.54180         6.49756
     2015.41410         6.90327         6.53786
     2015.41684         6.04268         6.58082
     2015.41958         1.90545         6.57347
     2015.42231         2.88399         6.54706
     2015.42505         6.45687         6.69719
     2015.42779        10.91254         6.51646
     2015.43053         5.09335         6.53569
     2015.43326         8.74876         6.55565
     2015.43600         0.99260         6.55476
     2015.43874         4.28619         6.51620
     2015.44148         0.76846         6.78290
     2015.44422         4.37144         6.52494
     2015.44695         6.07923         6.55026
     2015.44969         2.47363         6.54732
     2015.45243        -4.43613         6.67034
     2015.45517         6.27244         6.56585
     2015.45791         3.69269         6.68699
     2015.46064         9.87559         6.87031
     2015.46338        11.16840         6.70126
     2015.46612        11.66855         6.53005
     2015.46886        11.02948         6.53088
     2015.47159         7.32692         6.54961
     2015.47433         7.47273         6.78678
     2015.47707         6.39993         6.70375
     2015.47981         8.50530         6.65738
     2015.48255         8.57496         6.72646
     2015.48528         4.18085         6.55295
     2015.48802         9.11144         6.54995
     2015.49076         5.56971         6.52527
     2015.49350        13.25094         6.73786
     2015.49624        11.23391         6.72949
     2015.49897         2.72435         6.67787
     2015.50171         6.57103         6.52631
     2015.50445         3.41542         6.89223
     2015.50719         5.45000         6.80174
     2015.50992        12.12358         6.54454
     2015.51266        13.76207         6.69389
     2015.51540         9.13212         6.52224
     2015.51814        15.69538         6.97916
     2015.52088        17.30234         6.56388
     2015.52361        15.18934         6.72680
     2015.52635         9.87448         6.55643
     2015.52909         9.58032         6.63502
     2015.53183         9.84409         6.54276
     2015.53457        13.52694         6.54220
     2015.53730        18.72635         6.71529
     2015.54004        15.81678         6.83122
     2015.54278         9.71102         6.88361
     2015.54552        14.47993         6.68832
     2015.54825        14.02013         7.02131
     2015.55099        13.72685         6.69799
     2015.55373        17.06458         6.74025
     2015.55647        15.67706         6.70231
     2015.55921         8.86411         6.67068
     2015.56194        19.25713         6.65608
     2015.56468        12.60210         6.66097
     2015.56742         9.11048         6.78770
     2015.57016        12.42269         6.88874
     2015.57290         5.01681         6.88825
     2015.57563         7.36497         6.67888
     2015.57837        11.09298         6.65211
     2015.58111        10.16626         6.66622
     2015.58385        12.52436         6.84121
     2015.58658        18.44244         6.74378
     2015.58932        15.86893         7.01326
     2015.59206        15.94933         6.66423
     2015.59480        12.25316         6.66272
     2015.59754        10.60580         6.69037
     2015.60027        17.47771         6.78051
     2015.60301        10.10587         7.32241
     2015.60575        17.20262         7.05841
     2015.60849        17.73864         6.75012
     2015.61123        13.45797         6.63007
     2015.61396        21.08752         6.63558
     2015.61670        12.94666         6.49325
     2015.61944         6.94624         6.58556
     2015.62218        11.34916         6.50433
     2015.62491        20.41228         6.55445
     2015.62765        11.37490         6.51854
     2015.63039        17.54314         6.53146
     2015.63313        23.73855         7.04531
     2015.63587        11.89667         8.00512
     2015.64408        12.37829         6.78411
     2015.64682         6.67645         6.63883
     2015.64956         9.34007         6.54416
     2015.65229        14.30047         6.53404
     2015.65503        18.56813         6.54292
     2015.65777        21.75675         7.29003
     2015.66051        12.51794         6.50989
     2015.66324        14.42851         6.62786
     2015.66598         7.12569         6.63592
     2015.66872         8.73018         6.67143
     2015.67146        10.82869         6.69001
     2015.67420         6.98362         6.62852
     2015.67693         7.10301         6.51150
     2015.67967        14.22238         6.48372
     2015.68241         9.79099         6.51993
     2015.68515         7.33651         6.54649
     2015.68789        16.75160         6.55130
     2015.69062        15.63972         6.52997
     2015.69336        13.70367         6.72138
     2015.69610        14.00737         6.52468
     2015.69884        16.73030         6.54960
     2015.70157        13.69474         6.55508
     2015.70431        12.37253         6.67626
     2015.70705        12.17035         6.53411
     2015.70979         7.78621         6.49118
     2015.71253         9.77703         6.49875
     2015.71526        12.50346         6.52275
     2015.71800        20.35772         6.52361
     2015.72074        16.14670         6.52491
     2015.72348         8.71019         7.75346
     2015.72895        47.76744        14.43348
     2015.73169        17.69653         6.54594
     2015.73443        16.38973         9.95398
     2015.73717        11.79237         6.64231
     2015.73990         9.42090         6.67565
     2015.74264        11.04873         6.66717
     2015.74538        11.17191         6.83509
     2015.74812         2.99503         6.85942
     2015.75086         7.74681         6.71241
     2015.75359         4.98066         6.54575
     2015.75633         7.75967         6.53740
     2015.75907        11.15587         6.50670
     2015.76181        20.77689         6.97549
     2015.76454        22.99974         6.66697
     2015.76728        21.78484         6.55910
     2015.77002        14.21323         6.70572
     2015.77276         4.83370         6.75241
     2015.77550         9.82644         3.76549
     2015.77823        15.23492         3.76911
     2015.78097        14.38264         3.79551
     2015.78371        14.45220         3.78453
     2015.78645        11.53941         3.79793
     2015.78919        11.26257         3.84264
     2015.79192        11.72141         3.77310
     2015.79466        12.03238         3.75676
     2015.79740        13.70464         3.76726
     2015.80014        11.87476         3.87880
     2015.80287         7.66618         3.78678
     2015.80561         6.01612         3.76226
     2015.80835         9.99544         3.77354
     2015.81109        18.19563         3.87667
     2015.81383        12.94660         3.77591
     2015.81656         6.77045         3.78028
     2015.81930         1.00883         3.79214
     2015.82204         3.75664         3.90592
     2015.82478         8.85680         3.85427
     2015.82752        20.72979         3.79351
     2015.83025        11.90962         3.78635
     2015.83299        10.37220         3.81532
     2015.83573         4.98795         3.83762
     2015.83847         2.32339         3.84059
     2015.84120        -1.76172         3.83226
     2015.84394        12.20845         3.80394
     2015.84668        15.58007         3.81721
     2015.84942        14.91909         3.89117
     2015.85216         9.91228         3.85807
     2015.85489         7.63464         3.83721
     2015.85763         0.99491         3.83755
     2015.86037         6.11608         3.78996
     2015.86311         5.68414         3.86779
     2015.86585        13.62207         3.87179
     2015.86858        15.59632         3.83262
     2015.87132         7.66864         3.83364
     2015.87406         8.74558         3.80912
     2015.87680         7.11870         3.86242
     2015.87953         6.01678         3.85388
     2015.88227        15.16986         3.89090
     2015.88501         5.83488         3.83587
     2015.88775         7.74291         3.82768
     2015.89049        17.70060         8.11341
     2015.89322         5.24345         4.01908
     2015.89596        12.00523         3.82628
     2015.89870         2.05361         3.85976
     2015.90144         3.71353         3.81515
     2015.90418         0.66078         3.82531
     2015.90691         5.79592         3.81070
     2015.90965         6.59734         3.82990
     2015.91239         6.17425         3.83486
     2015.91513         3.95808         3.83923
     2015.91786         6.79437         3.82232
     2015.92060        11.74738         3.79275
     2015.92334         2.07696         3.82622
     2015.92608         2.73311         3.85542
     2015.92882         6.00479         3.84589
     2015.93155         4.45575         3.95606
     2015.93429         2.99858         4.27039
     2015.93703         3.82586         3.93420
     2015.93977        10.79433         3.97988
     2015.94251         7.17879         3.97676
     2015.94524         2.44289         4.05103
     2015.94798         7.42364         3.90139
     2015.95072         4.93495         3.79205
     2015.95619         8.02769         3.86682
     2015.95893         7.02021         3.97143
     2015.96988         3.73018         3.84109
     2015.97262        14.72050         3.82856
     2015.97536        11.85588         3.90001
     2015.97810         1.68719         3.76346
     2015.98084        -2.80614         3.77331
     2015.98357        -4.63123         3.82030
     2015.98631         7.22023         3.84088
     2015.98905         8.08886         3.81690
     2015.99179         0.24926         3.79672
     2015.99452         8.19926         3.86489
     2015.99726         8.03208         3.78238
     2016.00000         8.66049         3.81956
     2016.00274        11.98628         3.89907
     2016.00548         2.29452         3.79669
     2016.00821         7.59636         3.76876
     2016.01095         2.67027         3.78270
     2016.01369         1.52228         3.80133
     2016.01643         4.96387         3.94052
     2016.01916         4.57343         3.98088
     2016.02190         4.62382         3.85176
     2016.02464         6.49600         3.79550
     2016.02738         4.18590         3.78492
     2016.03012         4.79518         3.79542
     2016.03285         5.59083         3.85562
     2016.03559         8.26905         3.80066
     2016.03833         1.66726         3.86935
     2016.04107         2.17559         3.77448
     2016.04381        -1.49866         3.82982
     2016.04654         8.14071         3.88992
     2016.04928         3.49372         3.77624
     2016.05202         4.05380         3.74784
     2016.05476         2.94999         4.53317
     2016.06571         9.18414        14.75991
     2016.06845        -1.52965         4.02296
     2016.07118         3.53886         3.84456
     2016.07392         3.53776         3.83938
     2016.07666         4.26986         3.96011
     2016.07940        15.16581         3.83404
     2016.08214        10.28655         3.90245
     2016.08487         7.63719         3.80174
     2016.08761         1.85443         3.81551
     2016.09035        -0.40205         3.83888
     2016.09309         7.37607         3.88358
     2016.09582        -1.15179         4.45510
     2016.10404        -8.72501         6.14583
     2016.10678         4.28376         3.86332
     2016.10951         2.11743         3.95372
     2016.11225         5.39082         3.84255
     2016.11499        -3.28180         3.83988
     2016.11773        -2.20012         3.82857
     2016.12047         5.66143         3.86298
     2016.12320        -3.27908         3.93396
     2016.12594         1.09147         3.85070
     2016.12868         7.17957         3.79932
     2016.13142         1.99775         3.78704
     2016.13415        10.16496         3.80067
     2016.13689        -2.33082         3.84548
     2016.13963         1.45707         3.87788
     2016.14237         4.32329         3.81575
     2016.14511         2.73739         3.88466
     2016.14784         2.22869         3.80625
     2016.15058         4.09239         3.83589
     2016.15332         5.49136         5.72654
     2016.16153         2.79464         6.90660
     2016.16427         5.16588         4.15421
     2016.16701         9.23604         4.16527
     2016.16975         2.16282         3.99479
     2016.17248         3.66599         3.90549
     2016.17522         5.66435         3.80059
     2016.17796         8.88653         3.89537
     2016.18070        11.28670         3.86843
     2016.18344         7.54755         3.95325
     2016.18617         4.12260         3.91899
     2016.18891        11.45051         3.87355
     2016.19165         9.22450         3.80597
     2016.19439         9.72489         3.83438
     2016.19713         6.70965         3.83156
     2016.19986         7.64215         3.83631
     2016.20260         5.63656         3.81369
     2016.20534         3.07345         3.89535
     2016.20808         0.93722         4.36329
     2016.21081        11.36200         4.02148
     2016.21355         4.56292         3.80290
     2016.21629         2.90183         3.73448
     2016.21903         2.18450         3.81404
     2016.22177        10.19396         3.76413
     2016.22450         4.31712         3.74898
     2016.22724         2.15703         3.85091
     2016.22998         9.72983         3.75811
     2016.23272         9.24936         3.74535
     2016.23546        11.36199         3.76795
     2016.23819        10.99243         3.75117
     2016.24093         4.67459         3.81416
     2016.24367         4.42406         3.81512
     2016.24641         7.21882         3.75631
     2016.24914         7.47218         3.74603
     2016.25188         6.38440         3.75318
     2016.25462         7.38232         3.73525
     2016.25736         9.64146         3.87775
     2016.26010         4.18576         3.78887
     2016.26283         3.02775         3.76308
     2016.26557         0.03540         3.74978
     2016.26831         6.50399         3.73277
     2016.27105         5.65847         3.73515
     2016.27379         8.73441         3.78210
     2016.27652         6.86789         3.78654
     2016.27926        -3.37439         3.73484
     2016.28200         7.36414         4.89136
     2016.28747        -0.75745         5.32284
     2016.29021        -0.46033         3.80179
     2016.29295         4.53915         3.78508
     2016.29569         2.36204         3.76018
     2016.29843        -0.32687         3.85379
     2016.30116         6.88484         3.83607
     2016.30390         1.97641         3.78951
     2016.30664         3.98852         3.79193
     2016.30938         2.68807         3.74661
     2016.31211         0.34170         3.83426
     2016.31485         2.51761         3.76997
     2016.31759         1.95443         3.77375
     2016.32033         2.18475         3.78893
     2016.32307         3.95826         3.78318
     2016.32580         1.56914         3.72989
     2016.32854         4.08893         3.75376
     2016.33128        -3.33302         3.76350
     2016.33402         6.66887         3.82255
     2016.33676         5.28001         3.79513
     2016.33949        11.57325         4.03431
     2016.34223         6.30620         3.80575
     2016.34497         3.65885         3.82520
     2016.34771         6.10195         3.77665
     2016.35044        14.95974         3.86785
     2016.35318         5.85762         3.71601
     2016.35592         1.91220         3.72654
     2016.35866         3.61463         3.73527
     2016.36140         0.10642         3.76640
     2016.36413         4.79074         3.81590
     2016.36687         8.41759         3.76035
     2016.36961         6.19102         3.73038
     2016.37235         4.91318         3.74424
     2016.37509         2.03847         3.76956
     2016.37782        -5.42543         3.81928
     2016.38056         8.00704         3.81306
     2016.38330         6.83139         3.74440
     2016.38604         4.97922         3.71462
     2016.38877         4.32663         3.72094
     2016.39151         7.90269         3.76178
     2016.39425         9.58278         4.57761
     2016.40246         9.29403         4.81026
     2016.41342         3.03428         6.63595
     2016.41615         4.05064         3.85452
     2016.41889         6.71915         3.75987
     2016.42163        -2.45026         4.01508
     2016.42437        -0.97269         3.82828
     2016.42710        10.76692         3.72615
     2016.42984        11.45855         3.70772
     2016.43258        12.91867         3.74542
     2016.43532         9.39777         3.77980
     2016.43806         6.06918         3.77166
     2016.44079         5.79056         3.76581
     2016.44353        12.86845         3.71594
     2016.44627         2.43711         3.71859
     2016.44901        10.30312         3.79080
     2016.45175        15.72760         3.83735
     2016.45448         3.80105         3.74411
     2016.45722         5.51612         3.70804
     2016.45996         5.16014         3.69384
     2016.46270        10.46775         3.73669
     2016.46543         2.91843         3.77055
     2016.46817         9.15303         3.84283
     2016.47091        11.88484         3.79250
     2016.47365         7.12465         3.75277
     2016.47639        15.17652         3.86522
     2016.47912        10.31995         3.89037
     2016.48186         9.16913         3.90538
     2016.48460         7.60902         3.83581
     2016.48734         8.74660         4.61617
     2016.49008        13.40990         3.76719
     2016.49281        14.71251         3.87322
     2016.49555        12.36965         3.92261
     2016.49829         5.76457         3.78242
     2016.50103        10.21213         3.72937
     2016.50376         7.33690         3.81269
     2016.50650        13.76431         3.82409
     2016.50924        10.90716         3.72669
     2016.51198         5.66282         3.76253
     2016.51472         7.42179         3.92289
     2016.51745         9.00296         3.87844
     2016.52019        -3.27357         4.41186
     2016.52293        10.47829         3.82008
     2016.52567        11.48210         3.80561
     2016.52841         4.86356         3.80758
     2016.53114         2.07830         3.81626
     2016.53388         3.68767         3.78681
     2016.53662        10.68536         3.84988
     2016.53936        13.59971         3.80569
     2016.54209        16.40419         3.79720
     2016.54483        12.80966         3.83097
     2016.54757        11.83678         3.87361
     2016.55031        10.95982         3.89106
     2016.55305        14.75556         3.84577
     2016.55578        15.97966         3.89567
     2016.55852         9.90286         4.02227
     2016.56126        11.89070         3.82745
     2016.56400        14.27215         3.82111
     2016.56674        13.30589         3.89540
     2016.56947        10.16107         4.09073
     2016.57221         7.69811         3.83930
     2016.57495        10.57294         3.89957
     2016.57769        12.12503         3.92163
     2016.58042        14.77347         3.81529
     2016.58316        14.63387         3.82452
     2016.58590        13.90838         3.83278
     2016.58864        10.92993         3.82073
     2016.59138         8.16352         3.73614
     2016.59411        13.84656         3.80968
     2016.59685        18.75115         3.73570
     2016.59959        13.21792         3.74192
     2016.60233        14.88656         3.74849
     2016.60507        15.33125         3.73491
     2016.60780         8.11913         3.74075
     2016.61054        12.74579         3.70940
     2016.61328        10.87282         3.81006
     2016.61602        18.50034         3.74496
     2016.61875        18.91013         3.82396
     2016.62149        13.28818         3.72969
     2016.62423        12.69382         3.79506
     2016.62697        17.36402         3.70650
     2016.62971        14.02546         3.76858
     2016.63244        15.77647         3.83627
     2016.63518        18.71941         3.74094
     2016.63792        20.84119         3.73874
     2016.64066        16.06330         3.95037
     2016.64339        10.65021         3.87020
     2016.64613         5.50989         3.73884
     2016.64887        11.10903         3.74936
     2016.65161        17.39401         3.87116
     2016.65435         3.48601         3.78111
     2016.65708         7.84909         3.75143
     2016.65982         7.79284         3.73587
     2016.66256        15.91318         3.73976
     2016.66530         8.12018         3.78016
     2016.66804        12.50490         3.74820
     2016.67077        14.75764         3.84218
     2016.67351        14.46481         3.69890
     2016.67625        12.41553         3.70056
     2016.67899         9.50501         3.91743
     2016.68172        15.55756         3.73781
     2016.68446         5.20992         3.89359
     2016.68720        10.94962         3.83440
     2016.68994        21.95171         3.86872
     2016.69268         5.82565         3.75460
     2016.69541        19.91740         3.70686
     2016.69815        10.53934         3.75252
     2016.70089        12.60266         3.75745
     2016.70363        16.76788         3.73235
     2016.70637        15.19061         3.80113
     2016.70910         8.41921         3.81007
     2016.71184        16.10485         3.74055
     2016.71458        10.96284         3.84170
     2016.71732        14.62147         3.75179
     2016.72005        13.27037         3.71190
     2016.72279        16.07503         3.69498
     2016.72553         2.01691         3.80519
     2016.73922        25.61024         6.12245
     2016.74196         9.02658         3.72160
     2016.74470         4.73598         3.72710
     2016.74743        11.23056         3.73113
     2016.75017        12.55841         3.76612
     2016.75291        17.68951         3.74124
     2016.75565        12.30208         3.85980
     2016.75838        18.38772         3.89190
     2016.76112        10.55781         3.77867
     2016.76386        16.87651         3.72795
     2016.76660        12.54274         3.88463
     2016.76934        14.44119         3.73852
     2016.77207        17.91000         3.75418
     2016.77481        10.60892         3.74679
     2016.77755         5.23096         3.70296
     2016.78029         8.79265         3.75841
     2016.78303        15.56938         3.75514
     2016.78576        11.59743         3.81046
     2016.78850         6.62492         3.82364
     2016.79124        12.42647         3.73628
     2016.79398         7.57749         3.89820
     2016.79671        13.08142         3.82435
     2016.79945         0.05612         3.76690
     2016.80219         6.43398         3.76436
     2016.80493         1.00484         3.71824
     2016.80767        12.87487         3.72297
     2016.81040         8.48437         3.79525
     2016.81314        11.96192         3.74278
     2016.81588         7.48191         3.78694
     2016.81862        -0.75498         3.75614
     2016.82136         2.09576         3.75481
     2016.82409         2.29775         3.97082
     2016.82683         3.00357         3.70860
     2016.82957        10.87464         3.69483
     2016.83231        10.99846         3.73302
     2016.83504         1.20662         3.73933
     2016.83778         3.63356         3.92254
     2016.84052         4.71917         3.82087
     2016.84600         7.67568         3.78125
     2016.84873         9.52747         3.81868
     2016.85147         3.59776         3.74987
     2016.85421         2.56206         3.75350
     2016.85695         5.73238         3.76256
     2016.85969         7.22734         3.79436
     2016.86242        10.64419         3.73185
     2016.86516        13.97003         3.81670
     2016.86790         6.52099         3.76290
     2016.87064        12.72036         3.74918
     2016.87337        20.60229         3.80652
     2016.87611         8.60960         3.77870
     2016.87885        10.24315         3.72058
     2016.88159         0.76426         3.74655
     2016.88433        12.76592         3.76214
     2016.88706         6.95748         3.77679
     2016.88980         5.13038         3.76399
     2016.89254         8.33795         3.71219
     2016.89528         5.01433         3.84213
     2016.89802         5.09154         3.73404
     2016.90075         5.45170         3.79960
     2016.90349        13.16826         3.95008
     2016.90623         5.61857         3.71724
     2016.90897        13.57529         3.77904
     2016.91170         5.09288         3.68508
     2016.91444         8.75659         3.74744
     2016.91718        16.86336         3.98362
     2016.91992         4.62304         3.87091
     2016.92266         7.34398         3.71915
     2016.92539        12.10946         3.70495
     2016.92813         5.17334         3.76252
     2016.93087         9.00830         3.76745
     2016.93361         8.81191         3.90590
     2016.93634         9.93005         3.82255
     2016.93908         7.55479         3.86536
     2016.94182         5.00227         3.75342
     2016.94456        10.79003         3.84525
     2016.94730         7.96745         3.91097
     2016.95003        10.34686         3.93314
     2016.95277        10.07360         3.80950
     2016.95551        13.38568         3.74002
     2016.95825        11.65769         3.72973
     2016.96099         9.91071         3.79729
     2016.96372         8.64022         3.76924
     2016.96646         4.45041         3.93952
     2016.96920        16.05464         3.99734
     2016.97194         9.54844         3.71818
     2016.97467         8.92384         3.78969
     2016.97741        19.65500         3.86614
     2016.98015        10.78353         3.75727
     2016.98289         6.10989         3.73735
     2016.98563         0.09939         3.73095
     2016.98836        21.63748         3.77740
     2016.99110         8.56198         3.79619
     2016.99384        11.92598         3.75930
     2016.99658         9.23355         3.95000
     2017.00479         0.74775        53.88156
     2017.00753       -10.21118        91.63219
     2017.01300        16.88325        16.75986
     2017.02669        27.87540        16.26066
     2017.02943         9.55283         4.18486
     2017.03217        13.58259         3.79871
     2017.03491        10.40482         3.85570
     2017.03765         4.56353         3.84139
     2017.04038         4.99657         3.78591
     2017.04312        10.56422         3.86214
     2017.04586        13.31070         3.91044
     2017.04860        17.26131         3.75170
     2017.05133        17.63497         3.81817
     2017.06502         1.28321         8.82772
     2017.06776         5.17802         3.76832
     2017.07050        14.51850         3.74690
     2017.07324         5.46422         5.95408
     2017.08145        12.62403         6.66728
     2017.08419         7.66677         8.81645
     2017.08966        11.99130        18.69956
     2017.09788         3.25785       217.42707
     2017.10335        19.07589       161.53033
     2017.10609         9.90000         4.02208
     2017.11157         2.52253         3.73866
     2017.11431        -0.06938         3.71916
     2017.11704         0.00796         3.84039
     2017.11978         5.85778         3.76322
     2017.12252        10.69619         3.76792
     2017.12526         6.67603         3.82253
     2017.12799         2.91060         3.82547
     2017.13073         3.86809         3.83046
     2017.13347        13.17621         3.76193
     2017.13621        10.11755         3.79396
     2017.13895         3.38658         3.74728
     2017.14168         7.79533         3.74404
     2017.14442         4.06757         3.76089
     2017.14716         2.88639         3.96031
     2017.14990        -0.17368         4.53318
     2017.15537        22.33111         5.91193
     2017.15811         9.97131         7.22329
     2017.16085        14.39125         7.71162
     2017.16632        18.70023        45.79221
     2017.16906        18.37601       102.55406
     2017.18275         8.22240         4.18133
     2017.18549         3.56396         3.76944
     2017.18823         4.13005         3.76496
     2017.19097         8.57537         3.77627
     2017.19370        12.10871         3.91837
     2017.19644        13.52936         3.82790
     2017.19918         7.96269         3.83991
     2017.20192         4.22451         3.87767
     2017.20465         4.47720         3.84827
     2017.20739         3.28375         3.77292
     2017.21013        13.88196         3.77682
     2017.21287         2.72763         3.76497
     2017.21561         5.01708         3.77231
     2017.21834         4.29189         3.79019
     2017.22108         8.43391         3.77686
     2017.22382         3.92012         3.86516
     2017.22656         4.53195         4.31881
     2017.23203        -1.62424         6.88399
     2017.23477         7.87864         6.48327
     2017.23751         3.82940         6.49070
     2017.24025         5.40262       112.69497
     2017.24298         9.65837        16.29666
     2017.25394        -0.31292         6.80841
     2017.25667         3.72402         3.75025
     2017.25941        -2.01675         3.84602
     2017.26215         1.77420         4.29217
     2017.26489         4.85825         6.75894
     2017.26762        12.79150         3.76034
     2017.27036         1.00594         3.78158
     2017.27310         8.24844         3.80509
     2017.27584        -7.02292         4.06177
     2017.29227        -2.68543         6.91750
     2017.29500        -3.98665         3.79098
     2017.29774       -11.07855         7.02060
     2017.30322         0.78792         6.43296
     2017.31143         7.02854         5.90607
     2017.31417         2.45778         3.81304
     2017.31691         8.30163         8.26298
     2017.33060        -0.35472         8.42055
     2017.33333         4.06746         3.89737
     2017.33607         5.44112         3.74955
     2017.33881         0.05997         3.90540
     2017.34155         4.26079         3.84868
     2017.34428        -1.98891         3.73396
     2017.34702         0.35076         3.73792
     2017.35250        -7.83902         3.75603
     2017.35524         1.50242         3.76458
     2017.35797         0.09545         3.79758
     2017.36071         2.15145         3.75534
     2017.36345        -5.93766         3.73033
     2017.36619         1.82867         3.75992
     2017.36893        -4.64384         3.74929
     2017.37166         8.76113         3.78177
     2017.37440         1.26509         3.74429
     2017.37714         1.30623         4.02969
     2017.37988        -1.75909         6.35634
     2017.39083        -0.61666         6.56107
     2017.39357         8.34171         3.71718
     2017.39630         5.12057         5.62972
     2017.40726        -6.01583        12.66146
     2017.40999         6.89592         3.83952
     2017.41273         3.12772         3.83544
     2017.41547         3.50505         3.81152
     2017.41821         2.75018         3.84043
     2017.42094         2.92473         3.73953
     2017.42368         3.18359         3.69580
     2017.42642         1.95353         3.75624
     2017.42916         3.97260         3.78941
     2017.43190         2.01253         3.83418
     2017.43463        10.18600         3.83891
     2017.43737         4.39654         3.75029
     2017.44011         8.00944         3.74919
     2017.44285         7.57113         3.83991
     2017.44559         3.80755         3.81387
     2017.44832        -1.59338         6.47349
     2017.45106         1.12079         6.64858
     2017.45380         6.25680         3.83742
     2017.45654         9.78249         6.60773
